# Photometry
# Wave [um]   flux [Jy]  (extraction error,total error) :: w^2*flux [um^2 JY] (extraction error,total error)
2.12067 2.44540 (0.0247001,0.124740) :: 10.9975 (0.111082,0.560984)
# Spectra
# Wave[um]  flux[Jy]  Unc[Jy] w^2*flux[um^2Jy]  Unc[um^2Jy]
      2.4038401       1.6311001       0.0048840       9.4252253       0.0282221
      2.4047899       1.5808100       0.0043449       9.1418476       0.0251264
      2.4057500       1.6261500       0.0042896       9.4115601       0.0248269
      2.4066999       1.6232899       0.0041045       9.4024267       0.0237740
      2.4076600       1.6181000       0.0038623       9.3798456       0.0223892
      2.4086101       1.5924500       0.0037110       9.2384434       0.0215290
      2.4095700       1.6234400       0.0036034       9.4257374       0.0209213
      2.4105201       1.6018100       0.0033978       9.3074884       0.0197432
      2.4114799       1.6064399       0.0032309       9.3418264       0.0187883
      2.4124300       1.5942600       0.0031367       9.2783041       0.0182548
      2.4133899       1.6215900       0.0030499       9.4448719       0.0177641
      2.4143400       1.6279500       0.0029572       9.4893818       0.0172379
      2.4152901       1.6152900       0.0028074       9.4229984       0.0163773
      2.4162500       1.6069100       0.0026879       9.3815651       0.0156925
      2.4172001       1.6086100       0.0025719       9.3988771       0.0150275
      2.4181600       1.6191400       0.0025077       9.4679174       0.0146636
      2.4191101       1.6046600       0.0024088       9.3906212       0.0140964
      2.4200699       1.6157200       0.0023505       9.4628496       0.0137663
      2.4210200       1.6139801       0.0022837       9.4600830       0.0133853
      2.4219799       1.6203001       0.0022211       9.5046587       0.0130290
      2.4229300       1.6200600       0.0021409       9.5107079       0.0125681
      2.4238901       1.6296099       0.0021168       9.5743551       0.0124366
      2.4248400       1.6281800       0.0020749       9.5734529       0.0122001
      2.4258001       1.6543500       0.0020497       9.7350330       0.0120616
      2.4267600       1.6755100       0.0020302       9.8673534       0.0119561
      2.4277101       1.6678900       0.0020098       9.8301697       0.0118451
      2.4286699       1.6740500       0.0019998       9.8742790       0.0117956
      2.4296200       1.6765000       0.0019740       9.8964682       0.0116525
      2.4305799       1.6784700       0.0019484       9.9159288       0.0115108
      2.4315300       1.6704600       0.0019243       9.8763247       0.0113769
      2.4324901       1.6671000       0.0019086       9.8642435       0.0112929
      2.4334400       1.6751400       0.0019204       9.9195595       0.0113721
      2.4344001       1.6718800       0.0019284       9.9080687       0.0114280
      2.4353499       1.6882000       0.0019228      10.0125942       0.0114038
      2.4363101       1.6783400       0.0019232       9.9619656       0.0114155
      2.4372599       1.6751601       0.0019032       9.9508457       0.0113053
      2.4382200       1.6938699       0.0019292      10.0699158       0.0114689
      2.4391799       1.6865500       0.0019121      10.0342960       0.0113762
      2.4401300       1.6850700       0.0019113      10.0333023       0.0113804
      2.4410901       1.7017300       0.0019272      10.1404743       0.0114843
      2.4420400       1.6991200       0.0019125      10.1328030       0.0114054
      2.4430001       1.6880900       0.0018950      10.0749416       0.0113095
      2.4439499       1.7006800       0.0019413      10.1579771       0.0115953
      2.4449100       1.6884700       0.0018969      10.0929737       0.0113387
      2.4458699       1.6965500       0.0019058      10.1492367       0.0114008
      2.4468200       1.6917599       0.0019090      10.1284447       0.0114292
      2.4477799       1.6842400       0.0019010      10.0913363       0.0113902
      2.4487300       1.6899500       0.0018937      10.1334114       0.0113549
      2.4496901       1.6780400       0.0018801      10.0698881       0.0112827
      2.4506400       1.6707700       0.0018581      10.0340376       0.0111588
      2.4516001       1.6626500       0.0018686       9.9930973       0.0112307
      2.4525599       1.6709501       0.0018267      10.0508490       0.0109876
      2.4535100       1.6685899       0.0018431      10.0444298       0.0110952
      2.4544699       1.6733100       0.0018603      10.0807266       0.0112074
      2.4554200       1.6619900       0.0018321      10.0202837       0.0110461
      2.4563799       1.6497000       0.0018021       9.9539633       0.0108736
      2.4573400       1.6441200       0.0018323       9.9280510       0.0110645
      2.4582901       1.6679699       0.0018267      10.0798597       0.0110390
      2.4592500       1.6618800       0.0018396      10.0509014       0.0111258
      2.4602101       1.6647900       0.0018225      10.0763645       0.0110309
      2.4611599       1.6558700       0.0018049      10.0301151       0.0109329
      2.4621201       1.6404001       0.0017951       9.9441624       0.0108823
      2.4630699       1.6475500       0.0018205       9.9952135       0.0110447
      2.4640300       1.6625600       0.0018094      10.0941401       0.0109856
      2.4649899       1.6509200       0.0018156      10.0312796       0.0110318
      2.4659400       1.6647900       0.0017815      10.1233549       0.0108327
      2.4669001       1.6508100       0.0017706      10.0461626       0.0107754
      2.4678600       1.6616000       0.0017976      10.1196976       0.0109482
      2.4688101       1.6540900       0.0018088      10.0817175       0.0110246
      2.4697700       1.6526800       0.0017816      10.0809574       0.0108676
      2.4707301       1.6488600       0.0017991      10.0654774       0.0109824
      2.4716799       1.6389600       0.0017763      10.0127373       0.0108516
      2.4726400       1.6502200       0.0017842      10.0893612       0.0109084
      2.4735999       1.6429900       0.0017781      10.0529575       0.0108796
      2.4745500       1.6415499       0.0017763      10.0518637       0.0108773
      2.4755099       1.6531000       0.0017798      10.1304436       0.0109069
      2.4764700       1.6580200       0.0017767      10.1684771       0.0108965
      2.4774201       1.6528200       0.0017830      10.1443653       0.0109436
      2.4783800       1.6692300       0.0017952      10.2530241       0.0110270
      2.4793401       1.6517100       0.0017884      10.1532717       0.0109938
      2.4802899       1.6665100       0.0018027      10.2521000       0.0110897
      2.4812500       1.6457500       0.0017694      10.1322279       0.0108936
      2.4822099       1.6548200       0.0017813      10.1959515       0.0109749
      2.4831600       1.6431100       0.0017656      10.1315546       0.0108868
      2.4841199       1.6611000       0.0017819      10.2504015       0.0109961
      2.4850800       1.6447800       0.0017487      10.1575403       0.0107991
      2.4860401       1.6307800       0.0017652      10.0788651       0.0109097
      2.4869900       1.6479200       0.0017591      10.1925812       0.0108801
      2.4898601       1.6280299       0.0017259      10.0928144       0.0106994
      2.4908199       1.6294600       0.0017437      10.1094694       0.0108184
      2.4917800       1.6398300       0.0017459      10.1816511       0.0108400
      2.4927399       1.6292400       0.0017360      10.1236944       0.0107869
      2.4936900       1.6214300       0.0017268      10.0828466       0.0107380
      2.4946499       1.6285000       0.0017413      10.1346083       0.0108367
      2.4956100       1.6298900       0.0017198      10.1510677       0.0107108
      2.4965601       1.6259600       0.0017222      10.1343040       0.0107343
      2.4975200       1.6322000       0.0017228      10.1810207       0.0107460
      2.4984801       1.6102400       0.0016926      10.0517664       0.0105661
      2.4994400       1.6065400       0.0016776      10.0363770       0.0104801
      2.5003901       1.6163400       0.0017000      10.1052780       0.0106286
      2.5013499       1.6219100       0.0017172      10.1478882       0.0107444
      2.5023100       1.6237500       0.0017204      10.1672010       0.0107726
      2.5032699       1.6209500       0.0017177      10.1574564       0.0107639
      2.5042200       1.6183400       0.0017152      10.1488008       0.0107562
      2.5051799       1.6138300       0.0017052      10.1282778       0.0107016
      2.5061400       1.6239600       0.0017093      10.1996670       0.0107357
      2.5071001       1.6195199       0.0017088      10.1795750       0.0107404
      2.5080500       1.6119000       0.0016942      10.1393585       0.0106569
      2.5090101       1.6132500       0.0016993      10.1556215       0.0106975
      2.5099699       1.6153500       0.0017135      10.1766233       0.0107952
      2.5109301       1.6104000       0.0017131      10.1532011       0.0108010
      2.5118899       1.6258399       0.0017060      10.2583847       0.0107638
      2.5128400       1.6116400       0.0016375      10.1764832       0.0103399
      2.5137999       1.6230299       0.0016222      10.2562351       0.0102509
      2.5147600       1.6102500       0.0016320      10.1832504       0.0103205
      2.5157199       1.6146700       0.0016125      10.2189989       0.0102055
      2.5166800       1.6122700       0.0016053      10.2115993       0.0101677
      2.5176301       1.6138500       0.0016081      10.2293262       0.0101928
      2.5185900       1.6008900       0.0016030      10.1549187       0.0101686
      2.5195501       1.6007700       0.0015922      10.1619005       0.0101074
      2.5205100       1.6108600       0.0016129      10.2337465       0.0102465
      2.5214701       1.6013100       0.0016074      10.1808271       0.0102198
      2.5224199       1.5927200       0.0015917      10.1338444       0.0101272
      2.5233800       1.6036100       0.0015865      10.2109022       0.0101016
      2.5243399       1.5993900       0.0015906      10.1917801       0.0101358
      2.5253000       1.5975300       0.0015867      10.1876726       0.0101187
      2.5262599       1.5993700       0.0015829      10.2071619       0.0101021
      2.5272100       1.5836800       0.0015648      10.1146326       0.0099940
      2.5281701       1.5768300       0.0015602      10.0785360       0.0099722
      2.5291300       1.5769900       0.0015597      10.0872145       0.0099767
      2.5300901       1.5765500       0.0015586      10.0920572       0.0099773
      2.5310500       1.5890300       0.0015541      10.1796656       0.0099560
      2.5320101       1.5845600       0.0015414      10.1587334       0.0098823
      2.5329599       1.5809500       0.0015442      10.1431952       0.0099075
      2.5339200       1.5840400       0.0015699      10.1707258       0.0100797
      2.5348799       1.5913399       0.0015458      10.2253399       0.0099325
      2.5358400       1.6002001       0.0015631      10.2900620       0.0100514
      2.5367999       1.5839300       0.0015495      10.1931496       0.0099718
      2.5377600       1.5772500       0.0015338      10.1578465       0.0098779
      2.5387199       1.5981300       0.0015506      10.3001060       0.0099936
      2.5396700       1.5924500       0.0015609      10.2711811       0.0100679
      2.5406301       1.5716100       0.0015350      10.1444302       0.0099079
      2.5415900       1.5683700       0.0015395      10.1311674       0.0099445
      2.5425501       1.5776401       0.0015408      10.1987505       0.0099607
      2.5435100       1.5816900       0.0015536      10.2326527       0.0100512
      2.5444701       1.5923100       0.0015451      10.3091373       0.0100033
      2.5454299       1.5809700       0.0015475      10.2434425       0.0100265
      2.5463901       1.5794500       0.0015476      10.2413158       0.0100349
      2.5473399       1.5705900       0.0015320      10.1914654       0.0099413
      2.5483000       1.5758600       0.0015468      10.2333717       0.0100445
      2.5492599       1.5775800       0.0015469      10.2522602       0.0100529
      2.5502200       1.5649600       0.0015297      10.1779079       0.0099487
      2.5511799       1.5698400       0.0015386      10.2173328       0.0100141
      2.5521400       1.5618500       0.0015308      10.1729822       0.0099708
      2.5531001       1.5759600       0.0015512      10.2726116       0.0101111
      2.5540600       1.5772700       0.0015570      10.2888832       0.0101565
      2.5550201       1.5600100       0.0015280      10.1839437       0.0099752
      2.5559800       1.5555600       0.0015352      10.1625252       0.0100298
      2.5569301       1.5654600       0.0015357      10.2348070       0.0100406
      2.5578899       1.5681800       0.0015389      10.2602892       0.0100685
      2.5588500       1.5533500       0.0015266      10.1708908       0.0099956
      2.5598099       1.5658900       0.0015439      10.2606926       0.0101163
      2.5607700       1.5523200       0.0015498      10.1794052       0.0101631
      2.5617299       1.5546800       0.0015299      10.2025251       0.0100398
      2.5626900       1.5340800       0.0015120      10.0748863       0.0099299
      2.5636499       1.5422300       0.0015187      10.1359997       0.0099814
      2.5646100       1.5518700       0.0015298      10.2069969       0.0100620
      2.5655701       1.5495000       0.0015354      10.1990414       0.0101060
      2.5665300       1.5446800       0.0015232      10.1749249       0.0100332
      2.5674901       1.5549600       0.0015258      10.2503042       0.0100581
      2.5684500       1.5467800       0.0015263      10.2040071       0.0100692
      2.5694101       1.5503100       0.0015033      10.2349424       0.0099243
      2.5703700       1.5477700       0.0015144      10.2258091       0.0100053
      2.5713201       1.5530601       0.0015143      10.2683468       0.0100121
      2.5722799       1.5485500       0.0015036      10.2461729       0.0099490
      2.5732400       1.5498199       0.0015054      10.2622328       0.0099684
      2.5741999       1.5438900       0.0014960      10.2305956       0.0099131
      2.5751600       1.5309200       0.0014755      10.1522188       0.0097844
      2.5761199       1.5362300       0.0014846      10.1950264       0.0098522
      2.5770800       1.5341901       0.0014779      10.1890793       0.0098152
      2.5780399       1.5338900       0.0014480      10.1946774       0.0096235
      2.5790000       1.5377400       0.0014636      10.2278786       0.0097349
      2.5799601       1.5308599       0.0014646      10.1897011       0.0097489
      2.5809200       1.5220600       0.0014427      10.1386671       0.0096098
      2.5818801       1.5426199       0.0014730      10.2832661       0.0098190
      2.5828400       1.5301700       0.0014537      10.2078590       0.0096977
      2.5838001       1.5296201       0.0014405      10.2117786       0.0096167
      2.5847600       1.5123700       0.0014214      10.1041193       0.0094965
      2.5857201       1.5022500       0.0014055      10.0439653       0.0093968
      2.5866799       1.5255899       0.0014222      10.2075901       0.0095159
      2.5876400       1.5258200       0.0014198      10.2167091       0.0095065
      2.5885999       1.5355200       0.0014265      10.2892885       0.0095588
      2.5895600       1.5258000       0.0014261      10.2317419       0.0095631
      2.5905199       1.5314300       0.0014187      10.2771101       0.0095203
      2.5914800       1.5265599       0.0014027      10.2520237       0.0094201
      2.5924399       1.5196900       0.0013829      10.2134485       0.0092942
      2.5934000       1.5165100       0.0013793      10.1996269       0.0092765
      2.5943601       1.5290500       0.0014019      10.2915831       0.0094358
      2.5953200       1.5188900       0.0013906      10.2307663       0.0093665
      2.5962801       1.5224900       0.0013733      10.2626028       0.0092566
      2.5972400       1.5176500       0.0013541      10.2375441       0.0091342
      2.5982001       1.5149500       0.0013625      10.2268877       0.0091975
      2.5991600       1.5221400       0.0013783      10.2830181       0.0093110
      2.6001201       1.5185601       0.0013784      10.2664137       0.0093188
      2.6010799       1.5093300       0.0013663      10.2115488       0.0092441
      2.6020401       1.5151800       0.0013381      10.2586966       0.0090599
      2.6030099       1.5042800       0.0013375      10.1924906       0.0090628
      2.6039701       1.5057000       0.0013407      10.2096395       0.0090911
      2.6049299       1.5068500       0.0013437      10.2249718       0.0091177
      2.6058900       1.5074900       0.0013643      10.2368565       0.0092642
      2.6068499       1.5044600       0.0013541      10.2238083       0.0092023
      2.6078100       1.5067900       0.0013612      10.2471867       0.0092572
      2.6087699       1.5077400       0.0013457      10.2611961       0.0091583
      2.6097300       1.5101900       0.0013560      10.2854376       0.0092356
      2.6106901       1.4965600       0.0013468      10.2001085       0.0091795
      2.6116500       1.4986900       0.0013542      10.2221384       0.0092364
      2.6126101       1.5089000       0.0013629      10.2993469       0.0093030
      2.6135700       1.4979700       0.0013510      10.2322559       0.0092281
      2.6145301       1.4950401       0.0013399      10.2197466       0.0091590
      2.6154900       1.5007499       0.0013482      10.2663116       0.0092230
      2.6164501       1.4944400       0.0013393      10.2306538       0.0091687
      2.6174200       1.4974300       0.0013377      10.2587242       0.0091646
      2.6183801       1.4830800       0.0013437      10.1678696       0.0092123
      2.6193399       1.4818100       0.0013463      10.1666117       0.0092366
      2.6203001       1.4737099       0.0013377      10.1184521       0.0091843
      2.6212599       1.4665900       0.0013296      10.0769453       0.0091359
      2.6222200       1.4515400       0.0013368       9.9808445       0.0091922
      2.6231799       1.4395900       0.0013164       9.9059238       0.0090581
      2.6241400       1.4439700       0.0013374       9.9433374       0.0092096
      2.6250999       1.4055500       0.0012987       9.6858549       0.0089493
      2.6260600       1.4025700       0.0012994       9.6723909       0.0089606
      2.6270299       1.4153500       0.0013070       9.7677355       0.0090203
      2.6279900       1.4403600       0.0013252       9.9476032       0.0091519
      2.6289501       1.4551800       0.0013136      10.0573006       0.0090789
      2.6299100       1.4601700       0.0013417      10.0991592       0.0092796
      2.6308701       1.4649301       0.0013294      10.1394806       0.0092013
      2.6318300       1.4691401       0.0013365      10.1760406       0.0092574
      2.6327901       1.4881700       0.0013500      10.3153753       0.0093574
      2.6337500       1.4941601       0.0013511      10.3644485       0.0093722
      2.6347201       1.4773999       0.0013247      10.2557411       0.0091955
      2.6356800       1.4778800       0.0013425      10.2665501       0.0093257
      2.6366401       1.4735900       0.0013285      10.2442074       0.0092356
      2.6375999       1.4709800       0.0013285      10.2335100       0.0092419
      2.6385601       1.4890400       0.0013460      10.3666954       0.0093711
      2.6395199       1.4735600       0.0013394      10.2663889       0.0093320
      2.6404800       1.4802999       0.0013419      10.3208513       0.0093560
      2.6414499       1.4703500       0.0013223      10.2590113       0.0092262
      2.6424100       1.4667500       0.0013166      10.2413340       0.0091927
      2.6433699       1.4763600       0.0013263      10.3159237       0.0092673
      2.6443300       1.4690300       0.0013142      10.2721653       0.0091892
      2.6452899       1.4680800       0.0013062      10.2729759       0.0091405
      2.6462500       1.4817400       0.0013256      10.3760910       0.0092830
      2.6472199       1.4664600       0.0013094      10.2766190       0.0091760
      2.6481800       1.4693500       0.0013150      10.3043423       0.0092220
      2.6491399       1.4730700       0.0013095      10.3379202       0.0091898
      2.6501000       1.4522200       0.0012880      10.1989841       0.0090459
      2.6529901       1.4676501       0.0013008      10.3298445       0.0091556
      2.6539500       1.4665101       0.0013067      10.3292904       0.0092039
      2.6549101       1.4727000       0.0013182      10.3803959       0.0092914
      2.6558700       1.4665200       0.0012933      10.3443117       0.0091221
      2.6568301       1.4652200       0.0013078      10.3426151       0.0092314
      2.6578000       1.4482700       0.0012844      10.2304344       0.0090726
      2.6587601       1.4465700       0.0012790      10.2258110       0.0090409
      2.6597199       1.4611400       0.0012906      10.3362656       0.0091296
      2.6606801       1.4494100       0.0012866      10.2606897       0.0091081
      2.6616399       1.4481200       0.0012835      10.2589560       0.0090926
      2.6626101       1.4563900       0.0012875      10.3250656       0.0091276
      2.6635699       1.4474400       0.0012800      10.2690153       0.0090810
      2.6645300       1.4482300       0.0012813      10.2820282       0.0090970
      2.6654899       1.4366200       0.0012732      10.2069502       0.0090457
      2.6664500       1.4834900       0.0013005      10.5475483       0.0092465
      2.6674199       1.4340000       0.0012744      10.2030954       0.0090678
      2.6683800       1.4520000       0.0012758      10.3386059       0.0090841
      2.6693399       1.4480200       0.0012794      10.3176861       0.0091164
      2.6703000       1.4333100       0.0012625      10.2202206       0.0090024
      2.6712699       1.4436600       0.0012656      10.3015003       0.0090311
      2.6722300       1.4449800       0.0012684      10.3183327       0.0090576
      2.6731901       1.4276600       0.0012657      10.2019806       0.0090443
      2.6741500       1.4311500       0.0012602      10.2342653       0.0090116
      2.6751201       1.4309900       0.0012466      10.2405472       0.0089207
      2.6760800       1.4260000       0.0012513      10.2121620       0.0089607
      2.6770401       1.4295800       0.0012555      10.2451468       0.0089980
      2.6780000       1.4372300       0.0012554      10.3073587       0.0090035
      2.6789701       1.4361700       0.0012544      10.3072205       0.0090025
      2.6799300       1.4375300       0.0012544      10.3243761       0.0090093
      2.6808901       1.4313101       0.0012485      10.2870712       0.0089734
      2.6818500       1.4302599       0.0012441      10.2868862       0.0089478
      2.6828201       1.4264100       0.0012497      10.2666197       0.0089945
      2.6837800       1.4335999       0.0012567      10.3257542       0.0090517
      2.6847401       1.4274300       0.0012414      10.2886715       0.0089478
      2.6856999       1.4247100       0.0012442      10.2764111       0.0089746
      2.6866701       1.4191300       0.0012374      10.2435579       0.0089319
      2.6876299       1.4283100       0.0012453      10.3171902       0.0089952
      2.6885900       1.4317100       0.0012397      10.3491392       0.0089616
      2.6895599       1.4224100       0.0012398      10.2893333       0.0089687
      2.6905200       1.4291800       0.0012250      10.3456888       0.0088680
      2.6914799       1.4248000       0.0012345      10.3213434       0.0089425
      2.6924400       1.4259800       0.0012243      10.3372612       0.0088750
      2.6934099       1.4223300       0.0012249      10.3182316       0.0088860
      2.6943700       1.4197500       0.0012228      10.3068590       0.0088770
      2.6953299       1.4173100       0.0012313      10.2964783       0.0089449
      2.6963000       1.4253700       0.0012164      10.3624878       0.0088436
      2.6972599       1.4209300       0.0012196      10.3375654       0.0088727
      2.6982200       1.4198101       0.0012145      10.3367729       0.0088417
      2.6991899       1.4090199       0.0012127      10.2655926       0.0088356
      2.7001500       1.4055099       0.0012191      10.2473059       0.0088879
      2.7011099       1.4087501       0.0012086      10.2782326       0.0088182
      2.7020700       1.4115900       0.0012070      10.3062754       0.0088123
      2.7030399       1.4139000       0.0012048      10.3305540       0.0088024
      2.7040000       1.4147300       0.0012013      10.3439617       0.0087834
      2.7049601       1.4226000       0.0012192      10.4088926       0.0089204
      2.7059300       1.4174200       0.0012238      10.3784304       0.0089608
      2.7068901       1.4149200       0.0012205      10.3674774       0.0089426
      2.7078500       1.4200500       0.0012001      10.4124479       0.0087995
      2.7126701       1.4063200       0.0012125      10.3485165       0.0089226
      2.7136300       1.4442800       0.0012462      10.6353712       0.0091764
      2.7146001       1.4110600       0.0011903      10.3981771       0.0087712
      2.7155600       1.3998600       0.0012035      10.3229399       0.0088750
      2.7165301       1.4025600       0.0012122      10.3502417       0.0089454
      2.7174900       1.4027900       0.0012029      10.3592558       0.0088829
      2.7184501       1.4023300       0.0012043      10.3631783       0.0088994
      2.7194200       1.3949200       0.0011951      10.3157749       0.0088384
      2.7203801       1.3950700       0.0012078      10.3241701       0.0089384
      2.7213399       1.3928200       0.0011921      10.3147945       0.0088281
      2.7223101       1.3968900       0.0011964      10.3523130       0.0088669
      2.7232699       1.4079300       0.0011974      10.4414892       0.0088805
      2.7242301       1.4059900       0.0012085      10.4344549       0.0089692
      2.7251999       1.3967299       0.0011959      10.3731155       0.0088815
      2.7261600       1.3933800       0.0012056      10.3555288       0.0089599
      2.7271299       1.4001100       0.0012048      10.4129505       0.0089601
      2.7280900       1.3972000       0.0011989      10.3986263       0.0089227
      2.7290499       1.3959700       0.0012013      10.3967848       0.0089469
      2.7300200       1.3953700       0.0012136      10.3997059       0.0090447
      2.7309799       1.3901200       0.0012010      10.3678646       0.0089571
      2.7319500       1.3882800       0.0012081      10.3614988       0.0090164
      2.7329099       1.3917000       0.0012100      10.3943243       0.0090374
      2.7338700       1.3832700       0.0012101      10.3386230       0.0090440
      2.7348399       1.3747801       0.0012101      10.2824602       0.0090505
      2.7358000       1.3903100       0.0012154      10.4059172       0.0090967
      2.7367699       1.3860700       0.0012171      10.3815393       0.0091157
      2.7377300       1.3880500       0.0012167      10.4036646       0.0091192
      2.7386899       1.3782300       0.0012072      10.3373070       0.0090544
      2.7396600       1.3796901       0.0012156      10.3555908       0.0091237
      2.7406199       1.3777100       0.0012209      10.3479757       0.0091704
      2.7415900       1.3822600       0.0012155      10.3895025       0.0091359
      2.7425499       1.3681500       0.0012021      10.2906494       0.0090415
      2.7435100       1.3690500       0.0011861      10.3046303       0.0089277
      2.7444799       1.3811800       0.0012146      10.4032831       0.0091483
      2.7454400       1.3787900       0.0012160      10.3925486       0.0091658
      2.7464099       1.3741000       0.0012058      10.3645163       0.0090948
      2.7473700       1.3791300       0.0012114      10.4097309       0.0091439
      2.7483399       1.3740900       0.0012090      10.3790131       0.0091321
      2.7493000       1.3704600       0.0012099      10.3588285       0.0091452
      2.7502699       1.3645900       0.0012033      10.3217382       0.0091014
      2.7512300       1.3601300       0.0011930      10.2951860       0.0090302
      2.7521901       1.3563100       0.0011919      10.2734385       0.0090277
      2.7531600       1.3567200       0.0011974      10.2837877       0.0090765
      2.7541201       1.3316100       0.0011402      10.1004982       0.0086485
      2.7550900       1.3588001       0.0011964      10.3140001       0.0090815
      2.7560501       1.3685300       0.0012082      10.3950977       0.0091770
      2.7570200       1.3559800       0.0011988      10.3070202       0.0091126
      2.7579801       1.3542500       0.0011886      10.3010406       0.0090411
      2.7589500       1.3472300       0.0011982      10.2548513       0.0091202
      2.7599101       1.3555400       0.0011851      10.3252888       0.0090272
      2.7608800       1.3469000       0.0012002      10.2666893       0.0091484
      2.7618401       1.3490100       0.0011909      10.2899256       0.0090837
      2.7628000       1.3555599       0.0012125      10.3470755       0.0092554
      2.7637701       1.3488500       0.0011949      10.3030901       0.0091269
      2.7647300       1.3461500       0.0011820      10.2896099       0.0090351
      2.7657001       1.3487800       0.0011830      10.3169489       0.0090488
      2.7666600       1.3591100       0.0012023      10.4031820       0.0092032
      2.7676301       1.3448200       0.0011907      10.3010206       0.0091206
      2.7685900       1.3535200       0.0012071      10.3748541       0.0092525
      2.7695601       1.3541600       0.0012000      10.3870335       0.0092047
      2.7705200       1.3578399       0.0012071      10.4224815       0.0092657
      2.7714901       1.3347100       0.0011667      10.2521181       0.0089619
      2.7724500       1.3560200       0.0011901      10.4230185       0.0091476
      2.7734201       1.3401999       0.0011818      10.3086290       0.0090902
      2.7743800       1.3451900       0.0011852      10.3541756       0.0091229
      2.7753501       1.3395801       0.0011792      10.3182068       0.0090833
      2.7763100       1.3444099       0.0011826      10.3625736       0.0091154
      2.7772801       1.3472700       0.0011893      10.3918772       0.0091732
      2.7782400       1.3497100       0.0011955      10.4178953       0.0092274
      2.7792101       1.3344300       0.0011645      10.3071489       0.0089950
      2.7801700       1.3345701       0.0011631      10.3153524       0.0089897
      2.7811401       1.3438700       0.0011699      10.3944855       0.0090487
      2.7821000       1.3517400       0.0011777      10.4625759       0.0091153
      2.7830701       1.3430001       0.0011684      10.4021788       0.0090502
      2.7840400       1.3338400       0.0011694      10.3384323       0.0090641
      2.7850001       1.3250400       0.0011392      10.2773094       0.0088359
      2.7859700       1.3396200       0.0011676      10.3976326       0.0090623
      2.7869301       1.3326200       0.0011616      10.3504324       0.0090219
      2.7879000       1.3300400       0.0011423      10.3375845       0.0088787
      2.7888601       1.3315500       0.0011587      10.3564501       0.0090121
      2.7898300       1.3318700       0.0011679      10.3661451       0.0090896
      2.7907901       1.3312700       0.0011652      10.3686085       0.0090749
      2.7917600       1.3361700       0.0011722      10.4140072       0.0091357
      2.7927201       1.3321000       0.0011483      10.3894281       0.0089562
      2.7936900       1.3278600       0.0011533      10.3635540       0.0090011
      2.7946601       1.3326401       0.0011424      10.4080849       0.0089221
      2.7956200       1.3180200       0.0011408      10.3009739       0.0089158
      2.7965901       1.3248900       0.0011437      10.3618536       0.0089450
      2.7975500       1.3192700       0.0011565      10.3249846       0.0090512
      2.7985201       1.3230900       0.0011533      10.3620634       0.0090326
      2.7994800       1.3287801       0.0011660      10.4137659       0.0091380
      2.8004501       1.3144400       0.0011543      10.3085232       0.0090525
      2.8014100       1.3108701       0.0011569      10.2875738       0.0090790
      2.8023801       1.3237900       0.0011550      10.3961649       0.0090706
      2.8033500       1.3217200       0.0011534      10.3870945       0.0090640
      2.8043101       1.3257400       0.0011725      10.4258242       0.0092204
      2.8052800       1.3272800       0.0011736      10.4451571       0.0092357
      2.8062401       1.3190100       0.0011478      10.3871822       0.0090390
      2.8072100       1.3203700       0.0011679      10.4050798       0.0092037
      2.8081801       1.3152100       0.0011590      10.3715820       0.0091394
      2.8091400       1.3226100       0.0011696      10.4370689       0.0092295
      2.8120401       1.3003800       0.0011421      10.2828455       0.0090313
      2.8130100       1.3065200       0.0011661      10.3385248       0.0092278
      2.8139701       1.3026600       0.0011529      10.3150187       0.0091292
      2.8149400       1.3046900       0.0011595      10.3382168       0.0091877
      2.8159001       1.3024400       0.0011586      10.3274288       0.0091869
      2.8168700       1.3056700       0.0011633      10.3601732       0.0092309
      2.8178401       1.3052400       0.0011610      10.3638964       0.0092187
      2.8188000       1.2952400       0.0011554      10.2915030       0.0091803
      2.8197701       1.3058701       0.0011600      10.3831072       0.0092236
      2.8207300       1.3028700       0.0011576      10.3663082       0.0092101
      2.8217001       1.2953500       0.0011465      10.3135653       0.0091287
      2.8226700       1.2904299       0.0011382      10.2814569       0.0090686
      2.8236301       1.2957799       0.0011288      10.3311071       0.0089995
      2.8246000       1.2803800       0.0011148      10.2153387       0.0088943
      2.8255701       1.2723300       0.0011378      10.1580877       0.0090840
      2.8265300       1.2757000       0.0011435      10.1919136       0.0091361
      2.8275001       1.2682700       0.0011201      10.1395102       0.0089546
      2.8284600       1.2656200       0.0011267      10.1251955       0.0090134
      2.8294301       1.2793700       0.0011273      10.2422190       0.0090250
      2.8304000       1.2837100       0.0011371      10.2840109       0.0091093
      2.8313601       1.2886600       0.0011322      10.3306713       0.0090766
      2.8323300       1.2782500       0.0011306      10.2542400       0.0090696
      2.8333001       1.2798300       0.0011294      10.2739496       0.0090666
      2.8342600       1.2739000       0.0011239      10.2332764       0.0090282
      2.8352301       1.2720300       0.0011222      10.2252502       0.0090206
      2.8362000       1.2808300       0.0011254      10.3030357       0.0090530
      2.8371601       1.2814400       0.0011441      10.3149223       0.0092097
      2.8381300       1.2785900       0.0011575      10.2990198       0.0093232
      2.8390999       1.2835400       0.0011608      10.3459587       0.0093562
      2.8400600       1.2719100       0.0011384      10.2591505       0.0091827
      2.8410299       1.2806799       0.0011245      10.3369455       0.0090766
      2.8420000       1.2754900       0.0011141      10.3020878       0.0089989
      2.8429599       1.2698300       0.0011123      10.2633009       0.0089899
      2.8439300       1.2685601       0.0011089      10.2600355       0.0089687
      2.8448999       1.2659600       0.0011004      10.2459908       0.0089062
      2.8458600       1.2533400       0.0010878      10.1506987       0.0088101
      2.8468299       1.2673200       0.0010988      10.2709198       0.0089048
      2.8478000       1.2713300       0.0011084      10.3104420       0.0089888
      2.8487599       1.2687900       0.0010977      10.2967796       0.0089083
      2.8497300       1.2659500       0.0010867      10.2807302       0.0088253
      2.8506999       1.2633200       0.0010760      10.2663565       0.0087439
      2.8516600       1.2681700       0.0010864      10.3127136       0.0088348
      2.8526299       1.2545600       0.0010855      10.2089777       0.0088337
      2.8536000       1.2464700       0.0010730      10.1500463       0.0087379
      2.8545699       1.2408201       0.0010766      10.1109076       0.0087729
      2.8555300       1.2438200       0.0010670      10.1421719       0.0087003
      2.8564999       1.2445400       0.0010695      10.1549377       0.0087269
      2.8574700       1.2607100       0.0010682      10.2938681       0.0087222
      2.8584299       1.2634000       0.0010915      10.3227634       0.0089181
      2.8594000       1.2505100       0.0010831      10.2243805       0.0088558
      2.8603699       1.2494299       0.0010757      10.2224808       0.0088009
      2.8613300       1.2496300       0.0010669      10.2309818       0.0087352
      2.8622999       1.2482700       0.0010920      10.2267771       0.0089464
      2.8632700       1.2441200       0.0010836      10.1996889       0.0088834
      2.8642399       1.2470900       0.0010675      10.2309647       0.0087573
      2.8652000       1.2436399       0.0010750      10.2095022       0.0088251
      2.8661699       1.2458301       0.0010612      10.2344074       0.0087174
      2.8671401       1.2430100       0.0010512      10.2181549       0.0086411
      2.8681099       1.2337600       0.0010576      10.1489763       0.0086997
      2.8690701       1.2313700       0.0010378      10.1360989       0.0085427
      2.8700399       1.2212100       0.0010599      10.0592642       0.0087305
      2.8710101       1.2158900       0.0010534      10.0222149       0.0086832
      2.8719699       1.2196500       0.0010518      10.0599308       0.0086751
      2.8729401       1.2194500       0.0010389      10.0650768       0.0085745
      2.8739100       1.2178299       0.0010560      10.0584936       0.0087219
      2.8748801       1.2132699       0.0010473      10.0275974       0.0086560
      2.8758399       1.2232200       0.0010655      10.1165867       0.0088120
      2.8768101       1.2327100       0.0010505      10.2019529       0.0086942
      2.8777800       1.2391900       0.0010588      10.2624969       0.0087683
      2.8787501       1.2230099       0.0010168      10.1353302       0.0084260
      2.8797100       1.2161601       0.0010257      10.0852861       0.0085063
      2.8806801       1.2178200       0.0010191      10.1058578       0.0084569
      2.8816500       1.2232600       0.0010212      10.1578369       0.0084800
      2.8826201       1.2189400       0.0010347      10.1287804       0.0085978
      2.8835900       1.2168601       0.0010210      10.1183023       0.0084896
      2.8845501       1.2129300       0.0010311      10.0923405       0.0085797
      2.8855200       1.2265700       0.0010355      10.2126980       0.0086214
      2.8864901       1.2395900       0.0010450      10.3280478       0.0087065
      2.8874600       1.2333900       0.0010639      10.2832966       0.0088701
      2.8884201       1.2193300       0.0010509      10.1728344       0.0087674
      2.8893900       1.2216300       0.0010146      10.1988688       0.0084705
      2.8903601       1.2262700       0.0010408      10.2444811       0.0086952
      2.8913300       1.2306700       0.0010671      10.2881413       0.0089206
      2.8922999       1.2208900       0.0010440      10.2132320       0.0087337
      2.8932600       1.2259700       0.0010639      10.2625380       0.0089055
      2.8942299       1.2153000       0.0010470      10.1800413       0.0087703
      2.8952000       1.2273901       0.0010449      10.2882080       0.0087582
      2.8961699       1.2193600       0.0010612      10.2277479       0.0089013
      2.8971400       1.2249300       0.0010569      10.2813530       0.0088713
      2.8980999       1.2177100       0.0010615      10.2275257       0.0089155
      2.8990700       1.2046900       0.0010655      10.1249456       0.0089548
      2.9000399       1.2063600       0.0010481      10.1457672       0.0088144
      2.9010100       1.2080500       0.0010307      10.1667786       0.0086744
      2.9019799       1.2224900       0.0010439      10.2951841       0.0087913
      2.9029400       1.2083300       0.0010454      10.1826706       0.0088095
      2.9039099       1.2018600       0.0010434      10.1349154       0.0087991
      2.9048800       1.2120000       0.0010483      10.2272530       0.0088461
      2.9058499       1.2090400       0.0010457      10.2090902       0.0088295
      2.9068201       1.2192301       0.0010611      10.3020096       0.0089660
      2.9077799       1.2006700       0.0010501      10.1518860       0.0088790
      2.9087501       1.2024601       0.0010438      10.1738062       0.0088315
      2.9097199       1.2061599       0.0010484      10.2119169       0.0088760
      2.9106901       1.1979001       0.0010349      10.1487484       0.0087678
      2.9116600       1.2015500       0.0010479      10.1864576       0.0088838
      2.9126301       1.1953000       0.0010418      10.1402245       0.0088382
      2.9135900       1.2046500       0.0010525      10.2262812       0.0089348
      2.9145601       1.1977400       0.0010399      10.1743946       0.0088339
      2.9155300       1.1973200       0.0010382      10.1775970       0.0088249
      2.9165001       1.1980100       0.0010260      10.1902399       0.0087269
      2.9174700       1.2011499       0.0010414      10.2237453       0.0088638
      2.9184401       1.2050400       0.0010428      10.2636786       0.0088818
      2.9194100       1.1912400       0.0010326      10.1528845       0.0088004
      2.9203701       1.1944200       0.0010207      10.1866846       0.0087048
      2.9213400       1.1882499       0.0010325      10.1407948       0.0088118
      2.9223101       1.1895900       0.0010300      10.1589746       0.0087965
      2.9232800       1.1984299       0.0010401      10.2412615       0.0088883
      2.9242499       1.1811900       0.0010276      10.1006355       0.0087876
      2.9252200       1.1863800       0.0010213      10.1517496       0.0087392
      2.9261899       1.1876800       0.0010210      10.1696138       0.0087425
      2.9271500       1.1908200       0.0010421      10.2031918       0.0089294
      2.9281199       1.1980700       0.0010440      10.2721157       0.0089509
      2.9290900       1.1766500       0.0010269      10.0951490       0.0088103
      2.9300599       1.1796000       0.0010176      10.1271620       0.0087363
      2.9310300       1.1865100       0.0009997      10.1932316       0.0085886
      2.9319999       1.1836100       0.0010239      10.1750488       0.0088020
      2.9329700       1.1848300       0.0010283      10.1922779       0.0088458
      2.9339399       1.1740299       0.0010173      10.1060543       0.0087573
      2.9349000       1.1778899       0.0010252      10.1459179       0.0088309
      2.9358699       1.1840900       0.0010099      10.2060652       0.0087049
      2.9368401       1.1811500       0.0010148      10.1874533       0.0087525
      2.9378099       1.1792200       0.0010205      10.1775255       0.0088077
      2.9387801       1.1798600       0.0010374      10.1897755       0.0089598
      2.9397500       1.1736200       0.0010272      10.1425762       0.0088776
      2.9407201       1.1758800       0.0010181      10.1688156       0.0088045
      2.9416900       1.1713200       0.0010061      10.1360636       0.0087062
      2.9426601       1.1706899       0.0010177      10.1372948       0.0088124
      2.9436200       1.1762300       0.0010186      10.1919136       0.0088259
      2.9445901       1.1732800       0.0010162      10.1730537       0.0088115
      2.9455600       1.1710100       0.0010193      10.1600618       0.0088438
      2.9465301       1.1675900       0.0010057      10.1370621       0.0087314
      2.9475000       1.1637300       0.0010153      10.1102028       0.0088209
      2.9484701       1.1586601       0.0010185      10.0727835       0.0088540
      2.9494400       1.1571100       0.0010312      10.0659266       0.0089706
      2.9504099       1.1595700       0.0010307      10.0939627       0.0089722
      2.9513800       1.1554700       0.0010266      10.0648880       0.0089428
      2.9523499       1.1527600       0.0010332      10.0478821       0.0090056
      2.9533200       1.1502000       0.0010269      10.0321589       0.0089564
      2.9542899       1.1499100       0.0010351      10.0362177       0.0090341
      2.9552500       1.1541800       0.0010190      10.0800343       0.0088994
      2.9562199       1.1540500       0.0010277      10.0855150       0.0089812
      2.9571900       1.1450700       0.0010238      10.0136061       0.0089534
      2.9581599       1.1492400       0.0010218      10.0566664       0.0089414
      2.9591300       1.1596100       0.0010328      10.1540680       0.0090435
      2.9600999       1.1524400       0.0010253      10.0978994       0.0089839
      2.9610701       1.1373399       0.0010092       9.9721231       0.0088489
      2.9620399       1.1341200       0.0010004       9.9504070       0.0087770
      2.9630101       1.1434600       0.0010160      10.0389252       0.0089203
      2.9639800       1.1344301       0.0009911       9.9661694       0.0087072
      2.9649501       1.1384400       0.0010029      10.0079451       0.0088165
      2.9659200       1.1441100       0.0010182      10.0643711       0.0089569
      2.9668901       1.1401401       0.0010070      10.0360107       0.0088641
      2.9678600       1.1340200       0.0009959       9.9886665       0.0087723
      2.9688301       1.1416500       0.0010115      10.0624485       0.0089151
      2.9698000       1.1444200       0.0010118      10.0934544       0.0089235
      2.9707699       1.1343600       0.0009870      10.0112638       0.0087110
      2.9717400       1.1329300       0.0009999      10.0051756       0.0088306
      2.9727099       1.1333700       0.0009893      10.0155954       0.0087422
      2.9736800       1.1244700       0.0009547       9.9434328       0.0084423
      2.9746499       1.1344800       0.0009829      10.0384941       0.0086969
      2.9756100       1.1465200       0.0009977      10.1515799       0.0088337
      2.9765799       1.1357300       0.0009888      10.0626001       0.0087605
      2.9775500       1.1356601       0.0009975      10.0685387       0.0088437
      2.9785199       1.1476099       0.0009991      10.1811152       0.0088633
      2.9794900       1.1311800       0.0009902      10.0418940       0.0087908
      2.9804599       1.1296200       0.0009986      10.0345736       0.0088706
      2.9814301       1.1359299       0.0010059      10.0971966       0.0089415
      2.9823999       1.1211400       0.0009842       9.9722147       0.0087544
      2.9833701       1.1346200       0.0009959      10.0986805       0.0088637
      2.9843400       1.1242000       0.0009910      10.0124454       0.0088262
      2.9853101       1.1320200       0.0009997      10.0886478       0.0089097
      2.9862800       1.1284900       0.0009977      10.0637245       0.0088969
      2.9872501       1.1357100       0.0010062      10.1346931       0.0089791
      2.9882200       1.1305600       0.0009926      10.0952892       0.0088633
      2.9891901       1.1333300       0.0009966      10.1265955       0.0089049
      2.9901600       1.1351500       0.0009861      10.1494408       0.0088167
      2.9911301       1.1317800       0.0009847      10.1258764       0.0088096
      2.9921000       1.1301800       0.0009807      10.1181202       0.0087799
      2.9930699       1.1593400       0.0010202      10.3859100       0.0091397
      2.9940400       1.1392000       0.0009975      10.2121019       0.0089420
      2.9950099       1.1199000       0.0009760      10.0455971       0.0087547
      2.9959800       1.1254100       0.0009843      10.1015625       0.0088350
      2.9969499       1.1182801       0.0009673      10.0440655       0.0086879
      2.9979200       1.1170501       0.0009507      10.0395155       0.0085445
      2.9988899       1.1275600       0.0009765      10.1405315       0.0087817
      2.9998600       1.1272900       0.0009719      10.1446638       0.0087459
      3.0008399       1.1686701       0.0010274      10.5239210       0.0092521
      3.0018101       1.1168500       0.0009639      10.0637827       0.0086853
      3.0027800       1.1149600       0.0009730      10.0532455       0.0087730
      3.0037501       1.1191100       0.0009722      10.0971861       0.0087716
      3.0047200       1.1163700       0.0009715      10.0789700       0.0087706
      3.0056901       1.1224200       0.0009730      10.1401358       0.0087903
      3.0066600       1.1150700       0.0009407      10.0802383       0.0085036
      3.0076301       1.1131800       0.0009693      10.0696478       0.0087677
      3.0086000       1.1121700       0.0009601      10.0670004       0.0086907
      3.0095699       1.1096400       0.0009588      10.0505772       0.0086840
      3.0105400       1.1056900       0.0009364      10.0212564       0.0084871
      3.0115099       1.1014301       0.0009139       9.9890804       0.0082880
      3.0124800       1.1138200       0.0009712      10.1079559       0.0088139
      3.0134499       1.1321300       0.0009807      10.2807369       0.0089053
      3.0144200       1.1073101       0.0009431      10.0618258       0.0085696
      3.0153899       1.1095700       0.0009567      10.0888500       0.0086985
      3.0163600       1.1098300       0.0009536      10.0977087       0.0086760
      3.0173299       1.1089300       0.0009667      10.0960083       0.0088016
      3.0183001       1.1079700       0.0009686      10.0937567       0.0088244
      3.0192699       1.1151900       0.0009478      10.1660614       0.0086403
      3.0202401       1.1098100       0.0009154      10.1235199       0.0083505
      3.0212200       1.1111400       0.0009525      10.1422310       0.0086946
      3.0221901       1.1053500       0.0009461      10.0958614       0.0086413
      3.0231600       1.1076000       0.0009448      10.1229057       0.0086354
      3.0241301       1.0977401       0.0009300      10.0392313       0.0085056
      3.0251000       1.1107700       0.0009268      10.1649113       0.0084810
      3.0260701       1.1127100       0.0009390      10.1891975       0.0085981
      3.0270400       1.1148300       0.0009513      10.2151556       0.0087169
      3.0280099       1.0991700       0.0009231      10.0781183       0.0084639
      3.0289800       1.1007500       0.0009120      10.0990725       0.0083674
      3.0299499       1.0935500       0.0009326      10.0394411       0.0085614
      3.0309200       1.1034700       0.0009413      10.1370001       0.0086472
      3.0318899       1.0928200       0.0009500      10.0455914       0.0087327
      3.0328701       1.0926700       0.0009422      10.0507069       0.0086667
      3.0338399       1.0860000       0.0009447       9.9957438       0.0086951
      3.0348101       1.0798399       0.0009197       9.9454041       0.0084707
      3.0357800       1.0805800       0.0009320       9.9585819       0.0085897
      3.0367501       1.0739599       0.0008878       9.9038992       0.0081870
      3.0377200       1.0695300       0.0009095       9.8693476       0.0083925
      3.0386901       1.0675000       0.0009017       9.8569078       0.0083260
      3.0396600       1.0615600       0.0008940       9.8083181       0.0082601
      3.0406301       1.0631700       0.0009032       9.8294640       0.0083501
      3.0416000       1.0748399       0.0008836       9.9436998       0.0081749
      3.0425799       1.0886500       0.0009354      10.0779514       0.0086597
      3.0435500       1.0914000       0.0009451      10.1098537       0.0087542
      3.0445199       1.0880700       0.0009206      10.0854311       0.0085334
      3.0454900       1.0771199       0.0009335       9.9902973       0.0086579
      3.0464599       1.0894300       0.0009422      10.1109104       0.0087441
      3.0474300       1.0876300       0.0009141      10.1006355       0.0084895
      3.0483999       1.0775400       0.0009103      10.0133009       0.0084589
      3.0493701       1.0798600       0.0008955      10.0412483       0.0083270
      3.0503500       1.0742300       0.0009261       9.9953175       0.0086168
      3.0513201       1.0930901       0.0009411      10.1772747       0.0087621
      3.0522900       1.0911700       0.0009132      10.1658564       0.0085079
      3.0532601       1.0832800       0.0009414      10.0987663       0.0087765
      3.0542300       1.0759200       0.0009099      10.0365267       0.0084875
      3.0552001       1.0842000       0.0009368      10.1201916       0.0087442
      3.0561700       1.0934800       0.0009318      10.2132940       0.0087028
      3.0571401       1.0847900       0.0009410      10.1385622       0.0087949
      3.0581200       1.0776000       0.0009240      10.0778217       0.0086414
      3.0590899       1.1030400       0.0009288      10.3222828       0.0086921
      3.0600600       1.0900100       0.0009214      10.2068176       0.0086283
      3.0610299       1.0905300       0.0009290      10.2181625       0.0087050
      3.0620000       1.0850199       0.0009227      10.1729774       0.0086507
      3.0629699       1.0670600       0.0009274      10.0109272       0.0087007
      3.0678301       1.0693600       0.0009299      10.0643682       0.0087515
      3.0688000       1.0659600       0.0009303      10.0387135       0.0087614
      3.0697801       1.0718000       0.0009274      10.1001606       0.0087394
      3.0707500       1.0736800       0.0009215      10.1242714       0.0086893
      3.0717199       1.0729600       0.0009205      10.1238747       0.0086851
      3.0726900       1.0715100       0.0009277      10.1165800       0.0087584
      3.0736599       1.0650500       0.0009125      10.0619373       0.0086204
      3.0746300       1.0689600       0.0009251      10.1052523       0.0087457
      3.0756099       1.0691600       0.0009097      10.1135864       0.0086055
      3.0765800       1.0718100       0.0009146      10.1450510       0.0086568
      3.0775499       1.0695400       0.0009218      10.1299486       0.0087302
      3.0785201       1.0704200       0.0009112      10.1446762       0.0086359
      3.0794899       1.0689800       0.0009066      10.1374130       0.0085977
      3.0804601       1.0706600       0.0009227      10.1597433       0.0087554
      3.0814400       1.0753400       0.0009191      10.2106466       0.0087272
      3.0824101       1.0770500       0.0009314      10.2333231       0.0088493
      3.0833800       1.0838600       0.0009330      10.3045082       0.0088705
      3.0843501       1.0881600       0.0009379      10.3519011       0.0089223
      3.0853200       1.0869499       0.0009277      10.3468933       0.0088307
      3.0862999       1.0864000       0.0009165      10.3482285       0.0087303
      3.0872700       1.0927401       0.0009159      10.4151640       0.0087301
      3.0882399       1.0814700       0.0009181      10.3142233       0.0087561
      3.0892100       1.0792201       0.0009110      10.2992325       0.0086943
      3.0901799       1.0750999       0.0009162      10.2663565       0.0087494
      3.0911601       1.0785300       0.0008822      10.3056450       0.0084296
      3.0921299       1.0825900       0.0008836      10.3509331       0.0084483
      3.0931001       1.0857400       0.0008843      10.3875656       0.0084600
      3.0940700       1.0629400       0.0009029      10.1758108       0.0086436
      3.0950501       1.0614800       0.0009129      10.1682730       0.0087451
      3.0960200       1.0484300       0.0008943      10.0495577       0.0085724
      3.0969901       1.0456001       0.0008914      10.0287132       0.0085498
      3.0979600       1.0516900       0.0009071      10.0934429       0.0087062
      3.0989299       1.0566400       0.0009014      10.1473017       0.0086562
      3.0999100       1.0564200       0.0009120      10.1516066       0.0087638
      3.1008799       1.0594701       0.0008950      10.1872883       0.0086056
      3.1018500       1.0587300       0.0009023      10.1865425       0.0086815
      3.1028199       1.0621099       0.0009076      10.2254543       0.0087376
      3.1038001       1.0555400       0.0009008      10.1686230       0.0086775
      3.1047699       1.0585800       0.0009028      10.2042837       0.0087028
      3.1057401       1.0573200       0.0008998      10.1985083       0.0086793
      3.1067100       1.0619400       0.0008644      10.2494688       0.0083430
      3.1076801       1.0569201       0.0008658      10.2073908       0.0083616
      3.1086600       1.0594800       0.0008922      10.2385674       0.0086218
      3.1096301       1.0446100       0.0008943      10.1011696       0.0086476
      3.1106000       1.0613500       0.0008742      10.2694454       0.0084588
      3.1115699       1.0506700       0.0008914      10.1724482       0.0086309
      3.1125500       1.0482800       0.0009072      10.1557026       0.0087887
      3.1135199       1.0539300       0.0009153      10.2168045       0.0088727
      3.1144900       1.0499001       0.0009081      10.1840811       0.0088083
      3.1154599       1.0493701       0.0009039      10.1852808       0.0087732
      3.1164401       1.0586801       0.0009039      10.2821102       0.0087785
      3.1174099       1.0573699       0.0009059      10.2757797       0.0088040
      3.1183801       1.0533700       0.0008968      10.2432804       0.0087210
      3.1193600       1.0503500       0.0008992      10.2203321       0.0087493
      3.1203301       1.0562400       0.0009029      10.2840376       0.0087909
      3.1213000       1.0524700       0.0009059      10.2537031       0.0088262
      3.1222701       1.0538200       0.0008749      10.2732382       0.0085293
      3.1232500       1.0594000       0.0009012      10.3341188       0.0087913
      3.1242199       1.0511600       0.0008704      10.2601099       0.0084954
      3.1251900       1.0465500       0.0008805      10.2214575       0.0085994
      3.1261599       1.0440600       0.0008919      10.2034683       0.0087166
      3.1271400       1.0432400       0.0008678      10.2018490       0.0084861
      3.1281099       1.0551400       0.0008969      10.3246202       0.0087766
      3.1290801       1.0464400       0.0008985      10.2458429       0.0087977
      3.1300600       1.0451200       0.0009007      10.2393284       0.0088242
      3.1310301       1.0486200       0.0008952      10.2799883       0.0087758
      3.1320000       1.0568500       0.0008732      10.3670883       0.0085659
      3.1329701       1.0440201       0.0008909      10.2475805       0.0087444
      3.1339500       1.0436400       0.0009010      10.2502594       0.0088490
      3.1349199       1.0383800       0.0008869      10.2049112       0.0087163
      3.1358900       1.0426700       0.0008860      10.2534151       0.0087130
      3.1368699       1.0469000       0.0008850      10.3014469       0.0087088
      3.1378400       1.0477999       0.0009003      10.3166800       0.0088648
      3.1388099       1.0372000       0.0008950      10.2186270       0.0088180
      3.1397800       1.0318300       0.0008857      10.1720057       0.0087311
      3.1407599       1.0395499       0.0008952      10.2545090       0.0088301
      3.1417301       1.0367800       0.0008910      10.2335043       0.0087950
      3.1427000       1.0293900       0.0008587      10.1668348       0.0084806
      3.1436801       1.0347199       0.0008751      10.2258520       0.0086484
      3.1446500       1.0301400       0.0008885      10.1868734       0.0087861
      3.1456201       1.0252700       0.0008848      10.1449709       0.0087551
      3.1466000       1.0353900       0.0008993      10.2514915       0.0089043
      3.1475699       1.0355901       0.0008871      10.2597933       0.0087887
      3.1485400       1.0327500       0.0008797      10.2379656       0.0087207
      3.1495199       1.0445600       0.0008840      10.3614874       0.0087688
      3.1504900       1.0385300       0.0008909      10.3080206       0.0088425
      3.1514599       1.0343100       0.0008971      10.2724562       0.0089099
      3.1524301       1.0317200       0.0008908      10.2530432       0.0088528
      3.1534100       1.0376500       0.0008968      10.3183861       0.0089177
      3.1543801       1.0359700       0.0008834      10.3080187       0.0087904
      3.1553500       1.0372200       0.0008909      10.3268042       0.0088702
      3.1563301       1.0351100       0.0008950      10.3121996       0.0089160
      3.1573000       1.0282800       0.0008710      10.2504539       0.0086822
      3.1582699       1.0337600       0.0008924      10.3114128       0.0089017
      3.1592500       1.0229400       0.0008687      10.2098217       0.0086709
      3.1602199       1.0285000       0.0008831      10.2716188       0.0088199
      3.1611900       1.0277100       0.0008843      10.2700310       0.0088370
      3.1621699       1.0301100       0.0008844      10.3003988       0.0088436
      3.1631401       1.0309401       0.0008740      10.3150244       0.0087445
      3.1641099       1.0346100       0.0008715      10.3580933       0.0087246
      3.1650901       1.0274301       0.0008536      10.2925844       0.0085510
      3.1660600       1.0239700       0.0008811      10.2642088       0.0088324
      3.1670401       1.0235500       0.0008777      10.2663527       0.0088035
      3.1680100       1.0249000       0.0008871      10.2861900       0.0089031
      3.1689799       1.0289500       0.0008759      10.3331623       0.0087959
      3.1699600       1.0275900       0.0008825      10.3258896       0.0088679
      3.1709299       1.0333700       0.0008783      10.3903246       0.0088310
      3.1719000       1.0256900       0.0008689      10.3194160       0.0087423
      3.1728799       1.0272400       0.0008632      10.3413973       0.0086902
      3.1738501       1.0264000       0.0008797      10.3392601       0.0088616
      3.1748199       1.0209700       0.0008500      10.2908487       0.0085673
      3.1758001       1.0234200       0.0008779      10.3219128       0.0088540
      3.1767700       1.0263600       0.0008691      10.3578892       0.0087708
      3.1777401       1.0284300       0.0008832      10.3851185       0.0089187
      3.1787200       1.0225101       0.0008646      10.3317080       0.0087362
      3.1796899       1.0231200       0.0008630      10.3441811       0.0087256
      3.1806700       1.0231100       0.0008546      10.3504581       0.0086459
      3.1816399       1.0238600       0.0008750      10.3643627       0.0088578
      3.1826100       1.0228500       0.0008727      10.3604546       0.0088393
      3.1835899       1.0189700       0.0008584      10.3275108       0.0087006
      3.1845601       1.0170600       0.0008377      10.3144360       0.0084955
      3.1855400       1.0179200       0.0008028      10.3295116       0.0081470
      3.1865101       1.0164500       0.0008729      10.3208780       0.0088636
      3.1874800       1.0184799       0.0008730      10.3477850       0.0088695
      3.1884601       1.0241801       0.0008759      10.4120989       0.0089042
      3.1894300       1.0286300       0.0008830      10.4637012       0.0089823
      3.1903999       1.0240000       0.0008590      10.4229403       0.0087432
      3.1913800       1.0155100       0.0008681      10.3428736       0.0088416
      3.1923499       1.0209800       0.0008590      10.4049072       0.0087543
      3.1933300       1.0199400       0.0008497      10.4006929       0.0086647
      3.1942999       1.0223700       0.0008498      10.4318056       0.0086705
      3.1952701       1.0229200       0.0008293      10.4437590       0.0084674
      3.1962500       1.0219500       0.0008627      10.4402552       0.0088137
      3.1972201       1.0183800       0.0008560      10.4101019       0.0087500
      3.1982000       1.0244401       0.0008520      10.4784679       0.0087143
      3.1991701       1.0220900       0.0008562      10.4607735       0.0087626
      3.2001400       1.0153000       0.0008585      10.3975821       0.0087914
      3.2011199       1.0091100       0.0008567      10.3405199       0.0087783
      3.2020900       1.0197901       0.0008487      10.4562960       0.0087018
      3.2030699       1.0168300       0.0008648      10.4323263       0.0088730
      3.2040401       1.0170500       0.0008659      10.4409065       0.0088887
      3.2050099       1.0175101       0.0008660      10.4519539       0.0088961
      3.2059901       1.0129000       0.0008582      10.4109640       0.0088205
      3.2069600       1.0132800       0.0008681      10.4211721       0.0089286
      3.2079401       0.9919860       0.0008234      10.2084084       0.0084739
      3.2089100       1.0152800       0.0008516      10.4544430       0.0087692
      3.2098899       1.0104800       0.0008661      10.4113731       0.0089242
      3.2108600       1.0134900       0.0008685      10.4486980       0.0089535
      3.2118299       1.0151000       0.0008606      10.4716206       0.0088782
      3.2128100       1.0117900       0.0008651      10.4438467       0.0089296
      3.2137799       1.0128000       0.0008702      10.4605846       0.0089882
      3.2147601       1.0093300       0.0008665      10.4311056       0.0089550
      3.2157300       1.0139700       0.0008637      10.4853821       0.0089315
      3.2167101       1.0072500       0.0008588      10.4222412       0.0088860
      3.2176800       1.0062701       0.0008535      10.4183807       0.0088369
      3.2186501       1.0068700       0.0008735      10.4308805       0.0090496
      3.2196300       1.0013100       0.0008580      10.3795967       0.0088941
      3.2205999       1.0046999       0.0008514      10.4210129       0.0088309
      3.2215800       1.0159100       0.0008503      10.5437021       0.0088246
      3.2225499       1.0117700       0.0008587      10.5070572       0.0089173
      3.2235301       1.0089800       0.0008701      10.4844589       0.0090418
      3.2244999       1.0024500       0.0008664      10.4228735       0.0090081
      3.2254801       1.0004100       0.0008489      10.4079866       0.0088318
      3.2264500       1.0100000       0.0008354      10.5140791       0.0086967
      3.2274201       1.0247700       0.0008365      10.6742516       0.0087136
      3.2284000       1.0089900       0.0008139      10.5162659       0.0084831
      3.2293701       1.0329800       0.0008156      10.7727737       0.0085062
      3.2303500       1.0231200       0.0008230      10.6764231       0.0085877
      3.2313199       1.0160800       0.0008017      10.6093264       0.0083707
      3.2323000       1.0284600       0.0008413      10.7451067       0.0087897
      3.2332699       1.0259700       0.0008133      10.7255259       0.0085022
      3.2342501       1.0206400       0.0008190      10.6762762       0.0085675
      3.2352200       1.0158900       0.0008202      10.6329632       0.0085843
      3.2362001       1.0184799       0.0008255      10.6665316       0.0086460
      3.2371700       1.0213799       0.0008418      10.7033148       0.0088220
      3.2381499       1.0148600       0.0008373      10.6414318       0.0087796
      3.2391200       1.0111500       0.0008287      10.6088829       0.0086951
      3.2400999       1.0126400       0.0008243      10.6309452       0.0086533
      3.2410700       1.0109800       0.0008202      10.6198750       0.0086161
      3.2420399       1.0093800       0.0008284      10.6094151       0.0087073
      3.2430201       1.0107800       0.0008224      10.6305542       0.0086489
      3.2439899       1.0057300       0.0008271      10.5837708       0.0087041
      3.2449701       1.0059100       0.0008281      10.5920630       0.0087201
      3.2459400       1.0049900       0.0008291      10.5887012       0.0087351
      3.2469201       1.0095400       0.0007882      10.6430645       0.0083096
      3.2478900       1.0035000       0.0008221      10.5857096       0.0086724
      3.2488699       1.0057400       0.0008314      10.6157427       0.0087757
      3.2498400       1.0060000       0.0008292      10.6248293       0.0087574
      3.2508199       1.0142900       0.0008174      10.7188444       0.0086385
      3.2517900       1.0102500       0.0008308      10.6825237       0.0087851
      3.2527699       1.0057200       0.0008291      10.6410332       0.0087726
      3.2537401       0.9994310       0.0008246      10.5808010       0.0087295
      3.2547200       1.0086900       0.0008309      10.6852570       0.0088024
      3.2556901       1.0039001       0.0008279      10.6408567       0.0087750
      3.2566700       1.0055500       0.0008326      10.6647625       0.0088300
      3.2576399       1.0058600       0.0008352      10.6744051       0.0088637
      3.2586200       1.0075500       0.0008278      10.6987753       0.0087898
      3.2595899       1.0053999       0.0008278      10.6823006       0.0087950
      3.2605700       1.0045400       0.0007885      10.6795826       0.0083832
      3.2615399       0.9930350       0.0008075      10.5635519       0.0085902
      3.2625201       1.0070500       0.0008067      10.7190781       0.0085862
      3.2634900       0.9996420       0.0008135      10.6465540       0.0086641
      3.2644701       1.0026000       0.0008158      10.6844721       0.0086939
      3.2654400       0.9993190       0.0008236      10.6558371       0.0087824
      3.2664199       1.0059500       0.0008219      10.7329817       0.0087690
      3.2693400       1.0007900       0.0008264      10.6970282       0.0088335
      3.2703199       0.9956300       0.0008156      10.6482553       0.0087231
      3.2713001       0.9998920       0.0008202      10.7002487       0.0087772
      3.2722700       1.0021800       0.0008324      10.7310934       0.0089130
      3.2732501       1.0057000       0.0008250      10.7752371       0.0088397
      3.2742200       1.0002400       0.0008252      10.7230892       0.0088470
      3.2751999       1.0014700       0.0008306      10.7427025       0.0089093
      3.2761700       0.9944760       0.0008144      10.6739988       0.0087414
      3.2771499       0.9946470       0.0008141      10.6822224       0.0087434
      3.2781200       0.9941380       0.0008133      10.6830778       0.0087394
      3.2790999       0.9990670       0.0008284      10.7424650       0.0089072
      3.2800701       0.9984000       0.0008181      10.7416449       0.0088016
      3.2810500       1.0064900       0.0008291      10.8351555       0.0089250
      3.2820201       1.0019701       0.0008237      10.7928772       0.0088730
      3.2830000       0.9913350       0.0007933      10.6846962       0.0085507
      3.2839701       0.9940880       0.0008101      10.7207022       0.0087365
      3.2849500       0.9875550       0.0008076      10.6566038       0.0087149
      3.2859299       0.9895150       0.0007854      10.6841259       0.0084800
      3.2869000       0.9800600       0.0008014      10.5882854       0.0086578
      3.2878799       0.9872670       0.0008169      10.6725092       0.0088307
      3.2888501       0.9828760       0.0008162      10.6313124       0.0088282
      3.2898300       0.9830420       0.0008065      10.6394444       0.0087283
      3.2908001       0.9765930       0.0007815      10.5758829       0.0084636
      3.2917800       0.9688740       0.0007900      10.4985399       0.0085604
      3.2927499       0.9682030       0.0007931      10.4974527       0.0085987
      3.2937300       0.9706000       0.0007960      10.5297070       0.0086355
      3.2947099       0.9670590       0.0007996      10.4975348       0.0086795
      3.2956800       0.9689280       0.0007931      10.5240183       0.0086140
      3.2966599       0.9537050       0.0007861      10.3648338       0.0085432
      3.2976301       0.9567660       0.0007864      10.4042215       0.0085516
      3.2986100       0.9540840       0.0007926      10.3812237       0.0086238
      3.2995801       0.9587970       0.0007977      10.4386425       0.0086846
      3.3005600       0.9611920       0.0007877      10.4709330       0.0085807
      3.3015399       0.9741030       0.0007855      10.6178837       0.0085623
      3.3025100       0.9720400       0.0008121      10.6016245       0.0088570
      3.3034899       0.9806630       0.0007922      10.7020206       0.0086450
      3.3044600       0.9750330       0.0007924      10.6468306       0.0086528
      3.3054399       0.9821230       0.0008130      10.7306099       0.0088833
      3.3064101       0.9745730       0.0008076      10.6543703       0.0088294
      3.3073900       0.9776890       0.0008134      10.6947727       0.0088982
      3.3083701       0.9861080       0.0008073      10.7932606       0.0088363
      3.3093400       0.9838240       0.0008037      10.7745762       0.0088021
      3.3103199       0.9733390       0.0007644      10.6660604       0.0083764
      3.3112900       0.9731120       0.0007701      10.6698246       0.0084439
      3.3122699       0.9720160       0.0007899      10.6641159       0.0086666
      3.3132401       0.9751450       0.0007985      10.7047129       0.0087657
      3.3142200       0.9759180       0.0008098      10.7195358       0.0088953
      3.3152001       0.9751650       0.0008040      10.7176018       0.0088365
      3.3161700       0.9738590       0.0008084      10.7095118       0.0088895
      3.3171501       0.9719290       0.0007982      10.6946058       0.0087828
      3.3181200       0.9893110       0.0008282      10.8922348       0.0091179
      3.3190999       0.9844800       0.0008126      10.8454494       0.0089522
      3.3200800       0.9668600       0.0007936      10.6576309       0.0087482
      3.3210499       0.9772280       0.0008017      10.7782116       0.0088418
      3.3220301       0.9700300       0.0007941      10.7051382       0.0087638
      3.3230000       0.9687590       0.0007894      10.6973553       0.0087165
      3.3239801       0.9600060       0.0007742      10.6069555       0.0085536
      3.3249600       0.9694380       0.0007838      10.7174854       0.0086652
      3.3259301       0.9649880       0.0007871      10.6745148       0.0087064
      3.3269100       0.9674950       0.0007844      10.7085543       0.0086825
      3.3278799       0.9682690       0.0007767      10.7233706       0.0086018
      3.3288600       0.9728340       0.0007940      10.7802744       0.0087988
      3.3298399       0.9749650       0.0008007      10.8102503       0.0088783
      3.3308101       0.9641090       0.0007891      10.6961098       0.0087547
      3.3317900       0.9591920       0.0007875      10.6478214       0.0087424
      3.3327701       0.9656500       0.0007712      10.7258196       0.0085661
      3.3337400       0.9609800       0.0007830      10.6801605       0.0087025
      3.3347199       0.9658050       0.0007921      10.7400961       0.0088083
      3.3356900       0.9590680       0.0007642      10.6713848       0.0085031
      3.3366699       0.9618250       0.0007902      10.7083502       0.0087979
      3.3376501       0.9591460       0.0007892      10.6847982       0.0087915
      3.3386199       0.9662100       0.0007897      10.7697468       0.0088018
      3.3396001       0.9804470       0.0008049      10.9348555       0.0089772
      3.3405800       0.9586470       0.0007775      10.6979971       0.0086760
      3.3415501       0.9584120       0.0007904      10.7015877       0.0088259
      3.3425300       0.9641000       0.0007837      10.7714148       0.0087559
      3.3434999       0.9559090       0.0007853      10.6860981       0.0087786
      3.3444800       0.9676340       0.0007792      10.8235159       0.0087162
      3.3454599       0.9578760       0.0007862      10.7206469       0.0087993
      3.3464301       0.9600200       0.0007860      10.7508745       0.0088016
      3.3474100       0.9515240       0.0007868      10.6619730       0.0088167
      3.3483901       0.9576720       0.0007844      10.7371473       0.0087943
      3.3493600       0.9519650       0.0007817      10.6793451       0.0087693
      3.3503399       0.9529170       0.0007822      10.6962805       0.0087800
      3.3513200       0.9576140       0.0007807      10.7552948       0.0087680
      3.3522899       0.9584790       0.0007809      10.7712402       0.0087757
      3.3532701       0.9517740       0.0007758      10.7021465       0.0087237
      3.3542500       0.9515860       0.0007713      10.7062874       0.0086783
      3.3552201       0.9463820       0.0007729      10.6538963       0.0087013
      3.3562000       0.9509670       0.0007764      10.7117672       0.0087459
      3.3571701       0.9440880       0.0007737      10.6404295       0.0087199
      3.3581500       0.9542070       0.0007833      10.7607555       0.0088330
      3.3591299       0.9539110       0.0007751      10.7636967       0.0087458
      3.3601000       0.9471340       0.0007794      10.6934004       0.0087995
      3.3610799       0.9472450       0.0007659      10.7008924       0.0086523
      3.3620601       0.9540240       0.0007652      10.7837610       0.0086498
      3.3630300       0.9526640       0.0007860      10.7746019       0.0088899
      3.3640101       0.9492150       0.0007811      10.7418518       0.0088396
      3.3649900       0.9440520       0.0007812      10.6896486       0.0088460
      3.3659599       0.9462160       0.0007793      10.7203302       0.0088287
      3.3669400       0.9459160       0.0007711      10.7231731       0.0087416
      3.3679199       0.9530170       0.0007785      10.8099623       0.0088301
      3.3688900       0.9501730       0.0007752      10.7839136       0.0087984
      3.3698699       0.9508580       0.0007818      10.7979660       0.0088785
      3.3708501       0.9516990       0.0007886      10.8138037       0.0089601
      3.3718200       0.9426550       0.0007620      10.7172050       0.0086629
      3.3728001       0.9409400       0.0007540      10.7039280       0.0085773
      3.3737800       0.9401710       0.0007604      10.7013950       0.0086553
      3.3747499       0.9369350       0.0007602      10.6706934       0.0086579
      3.3757300       0.9316870       0.0007439      10.6170893       0.0084766
      3.3767099       0.9357930       0.0007671      10.6700706       0.0087465
      3.3776801       0.9393880       0.0007707      10.7172174       0.0087926
      3.3786600       0.9392250       0.0007634      10.7215757       0.0087140
      3.3796401       0.9327700       0.0007583      10.6540689       0.0086612
      3.3806200       0.9349030       0.0007607      10.6846247       0.0086935
      3.3815899       0.9285900       0.0007522      10.6185665       0.0086011
      3.3825700       0.9338460       0.0007594      10.6848602       0.0086886
      3.3835499       0.9311810       0.0007488      10.6605425       0.0085731
      3.3845201       0.9309300       0.0007658      10.6637812       0.0087727
      3.3855000       0.9330050       0.0007589      10.6937389       0.0086982
      3.3864801       0.9301330       0.0007513      10.6669950       0.0086160
      3.3874500       0.9358180       0.0007493      10.7383404       0.0085981
      3.3884301       0.9262400       0.0007395      10.6345863       0.0084910
      3.3894100       0.9336750       0.0007498      10.7261515       0.0086134
      3.3903799       0.9333570       0.0007595      10.7286358       0.0087304
      3.3913600       0.9342350       0.0007514      10.7449379       0.0086420
      3.3923399       0.9250410       0.0007444      10.6453438       0.0085663
      3.3933201       0.9311090       0.0007619      10.7213669       0.0087731
      3.3942900       0.9317830       0.0007497      10.7352619       0.0086371
      3.3952701       0.9292850       0.0007343      10.7126665       0.0084647
      3.3962500       0.9392100       0.0007636      10.8333311       0.0088082
      3.3972199       0.9267640       0.0007484      10.6958790       0.0086378
      3.3982000       0.9268830       0.0007459      10.7034254       0.0086137
      3.3991799       0.9296170       0.0007556      10.7411890       0.0087305
      3.4001601       0.9330910       0.0007659      10.7875471       0.0088545
      3.4011300       0.9205210       0.0007465      10.6482973       0.0086355
      3.4021101       0.9258320       0.0007462      10.7159061       0.0086368
      3.4030900       0.9298880       0.0007449      10.7690525       0.0086265
      3.4040599       0.9236300       0.0007532      10.7026768       0.0087277
      3.4050400       0.9259480       0.0007508      10.7357168       0.0087045
      3.4060199       0.9181480       0.0007497      10.6514091       0.0086969
      3.4070001       0.9181570       0.0007597      10.6576443       0.0088182
      3.4079700       0.9225390       0.0007577      10.7146063       0.0088005
      3.4089501       0.9196910       0.0007571      10.6876755       0.0087977
      3.4099300       0.9178140       0.0007395      10.6719952       0.0085990
      3.4109001       0.9183530       0.0007579      10.6843386       0.0088178
      3.4118800       0.9355230       0.0007605      10.8903532       0.0088524
      3.4128599       0.9187210       0.0007601      10.7009068       0.0088533
      3.4138401       0.9198290       0.0007619      10.7199669       0.0088791
      3.4148099       0.9227900       0.0007622      10.7605867       0.0088881
      3.4157901       0.9209020       0.0007414      10.7447367       0.0086499
      3.4167700       0.9116820       0.0007160      10.6432648       0.0083594
      3.4177499       0.9143120       0.0007458      10.6800919       0.0087123
      3.4187200       0.9153000       0.0007590      10.6977034       0.0088706
      3.4196999       0.9125600       0.0007552      10.6717939       0.0088316
      3.4206800       0.9157340       0.0007381      10.7150507       0.0086366
      3.4216499       0.9140720       0.0007543      10.7016697       0.0088311
      3.4226301       0.9075130       0.0007582      10.6309671       0.0088814
      3.4236100       0.9049890       0.0007415      10.6074715       0.0086915
      3.4245901       0.9122390       0.0007528      10.6985731       0.0088291
      3.4255600       0.9081900       0.0007445      10.6571198       0.0087362
      3.4265399       0.9111470       0.0007387      10.6979370       0.0086734
      3.4275200       0.9050740       0.0007494      10.6327124       0.0088035
      3.4284999       0.9003370       0.0007303      10.5831118       0.0085844
      3.4294701       0.9033760       0.0007386      10.6248446       0.0086869
      3.4304500       0.9027310       0.0007505      10.6233273       0.0088319
      3.4314301       0.9085590       0.0007595      10.6980209       0.0089425
      3.4324100       0.9061430       0.0007556      10.6756687       0.0089018
      3.4333799       0.9074830       0.0007537      10.6974974       0.0088848
      3.4343600       0.9026250       0.0007401      10.6463070       0.0087291
      3.4353399       0.9084840       0.0007366      10.7215290       0.0086931
      3.4363201       0.9096540       0.0007501      10.7414637       0.0088579
      3.4372900       0.8967730       0.0007358      10.5953388       0.0086938
      3.4382701       0.9039360       0.0007523      10.6860619       0.0088932
      3.4392500       0.8978450       0.0007340      10.6201057       0.0086826
      3.4402299       0.9025460       0.0007414      10.6817961       0.0087749
      3.4412100       0.9015780       0.0007602      10.6764202       0.0090025
      3.4421799       0.8999870       0.0007310      10.6635876       0.0086609
      3.4431601       0.8979430       0.0007385      10.6454296       0.0087555
      3.4441400       0.9036100       0.0007507      10.7187119       0.0089044
      3.4451201       0.8995380       0.0007524      10.6764841       0.0089296
      3.4460900       0.8904770       0.0007671      10.5748920       0.0091103
      3.4470699       0.9017950       0.0007818      10.7153912       0.0092899
      3.4480500       0.8979760       0.0007636      10.6760798       0.0090783
      3.4490299       0.8941170       0.0007551      10.6362438       0.0089831
      3.4500000       0.8961500       0.0007672      10.6664257       0.0091317
      3.4509799       0.8959270       0.0007644      10.6698303       0.0091039
      3.4519601       0.8854280       0.0007560      10.5507851       0.0090087
      3.4529400       0.8930710       0.0007685      10.6479015       0.0091629
      3.4539199       0.8981720       0.0007764      10.7147989       0.0092619
      3.4548900       0.8930700       0.0007471      10.6599197       0.0089180
      3.4558699       0.8959500       0.0007433      10.7003641       0.0088774
      3.4568501       0.8900750       0.0007597      10.6362295       0.0090784
      3.4578300       0.8854320       0.0007512      10.5867453       0.0089821
      3.4588001       0.8894020       0.0007651      10.6401806       0.0091530
      3.4597800       0.8857140       0.0007576      10.6020651       0.0090687
      3.4607601       0.8895690       0.0007645      10.6542444       0.0091568
      3.4617400       0.8859490       0.0007550      10.6168976       0.0090472
      3.4627199       0.8936260       0.0007521      10.7149591       0.0090178
      3.4636900       0.8912580       0.0007581      10.6925545       0.0090951
      3.4646699       0.8848560       0.0007206      10.6217566       0.0086501
      3.4656501       0.8847630       0.0007111      10.6266499       0.0085412
      3.4666300       0.8894990       0.0007638      10.6895752       0.0091785
      3.4676099       0.8870500       0.0007467      10.6661720       0.0089786
      3.4685800       0.8882290       0.0007630      10.6863251       0.0091795
      3.4695599       0.8799980       0.0007556      10.5932808       0.0090963
      3.4705400       0.8871960       0.0007570      10.6859636       0.0091180
      3.4715199       0.8832160       0.0007626      10.6440344       0.0091900
      3.4725001       0.8898400       0.0007660      10.7299194       0.0092363
      3.4734700       0.8849350       0.0007559      10.6767359       0.0091203
      3.4744501       0.8798140       0.0007419      10.6209421       0.0089567
      3.4754300       0.8784040       0.0007514      10.6099033       0.0090755
      3.4764099       0.8783470       0.0007448      10.6151981       0.0090008
      3.4773901       0.8854240       0.0007423      10.7067604       0.0089767
      3.4783599       0.8793390       0.0007460      10.6391115       0.0090256
      3.4793401       0.8864830       0.0007350      10.7315922       0.0088980
      3.4803200       0.8859910       0.0007283      10.7316780       0.0088215
      3.4813001       0.8844670       0.0007390      10.7192545       0.0089558
      3.4822800       0.8792800       0.0007505      10.6623898       0.0091005
      3.4832499       0.8781920       0.0007419      10.6551304       0.0090020
      3.4842300       0.8800910       0.0007371      10.6841812       0.0089484
      3.4852099       0.8709900       0.0007373      10.5796442       0.0089556
      3.4861901       0.8736250       0.0007241      10.6176205       0.0088009
      3.4871700       0.8755960       0.0007516      10.6475573       0.0091401
      3.4881499       0.8712050       0.0007419      10.6001158       0.0090274
      3.4891200       0.8698040       0.0007255      10.5889587       0.0088326
      3.4900999       0.8732260       0.0007428      10.6365891       0.0090484
      3.4910800       0.8769150       0.0007403      10.6875238       0.0090231
      3.4920599       0.8804950       0.0007475      10.7371817       0.0091160
      3.4930401       0.8773010       0.0007565      10.7042379       0.0092301
      3.4940200       0.8704180       0.0007112      10.6262159       0.0086827
      3.4949901       0.8717760       0.0007303      10.6487055       0.0089207
      3.4959700       0.8800170       0.0007353      10.7553968       0.0089862
      3.4969499       0.8730830       0.0007299      10.6766338       0.0089263
      3.4979300       0.8690870       0.0007456      10.6337261       0.0091231
      3.4989100       0.8720710       0.0007395      10.6762171       0.0090527
      3.4998801       0.8710790       0.0007230      10.6699867       0.0088557
      3.5008600       0.8683970       0.0007174      10.6430912       0.0087919
      3.5018401       0.8662880       0.0007247      10.6231899       0.0088865
      3.5028200       0.8683290       0.0007390      10.6541777       0.0090677
      3.5037999       0.8668950       0.0007342      10.6425362       0.0090129
      3.5047801       0.8683080       0.0007412      10.6658468       0.0091043
      3.5057600       0.8688840       0.0007407      10.6788912       0.0091037
      3.5067301       0.8751930       0.0007486      10.7623844       0.0092062
      3.5077100       0.8662860       0.0007382      10.6588078       0.0090826
      3.5086901       0.8737610       0.0007398      10.7567902       0.0091073
      3.5096700       0.8697810       0.0007356      10.7137737       0.0090609
      3.5106499       0.8620430       0.0007197      10.6243896       0.0088700
      3.5116301       0.8633750       0.0007291      10.6467485       0.0089909
      3.5125999       0.8730480       0.0007125      10.7719784       0.0087905
      3.5135801       0.8676830       0.0007201      10.7117596       0.0088903
      3.5145600       0.8631120       0.0007426      10.6612730       0.0091722
      3.5155399       0.8714930       0.0007451      10.7707996       0.0092089
      3.5165200       0.8716700       0.0007415      10.7789955       0.0091692
      3.5174999       0.8701650       0.0007375      10.7663822       0.0091244
      3.5184801       0.8671420       0.0007432      10.7349596       0.0092000
      3.5194499       0.8645930       0.0007284      10.7093058       0.0090223
      3.5204301       0.8647690       0.0007305      10.7174520       0.0090534
      3.5214100       0.8682180       0.0007476      10.7661886       0.0092702
      3.5223899       0.8672700       0.0007441      10.7604189       0.0092327
      3.5233700       0.8609620       0.0007334      10.6880989       0.0091043
      3.5243499       0.8630960       0.0007308      10.7205524       0.0090773
      3.5253301       0.8601930       0.0007438      10.6904373       0.0092434
      3.5263000       0.8634350       0.0007322      10.7366343       0.0091044
      3.5272801       0.8598310       0.0007462      10.6977634       0.0092841
      3.5282600       0.8650540       0.0007358      10.7687273       0.0091591
      3.5292399       0.8573010       0.0007428      10.6781416       0.0092524
      3.5302200       0.8644030       0.0007342      10.7725830       0.0091501
      3.5311999       0.8687890       0.0007513      10.8332539       0.0093686
      3.5321801       0.8597210       0.0007427      10.7261343       0.0092665
      3.5331500       0.8567550       0.0007386      10.6950006       0.0092204
      3.5341301       0.8571020       0.0007369      10.7052679       0.0092042
      3.5351100       0.8610530       0.0007427      10.7605810       0.0092810
      3.5360899       0.8636840       0.0007419      10.7994461       0.0092764
      3.5370700       0.8592490       0.0007442      10.7499475       0.0093108
      3.5380499       0.8573750       0.0007355      10.7324467       0.0092072
      3.5390301       0.8557510       0.0007271      10.7180529       0.0091070
      3.5400100       0.8555940       0.0007166      10.7220221       0.0089803
      3.5409801       0.8634750       0.0007435      10.8267164       0.0093220
      3.5419600       0.8574330       0.0007390      10.7569094       0.0092706
      3.5429399       0.8568380       0.0007417      10.7553930       0.0093097
      3.5439200       0.8535080       0.0007390      10.7195215       0.0092819
      3.5448999       0.8504690       0.0007419      10.6872616       0.0093231
      3.5458801       0.8529380       0.0007325      10.7242155       0.0092101
      3.5468600       0.8536680       0.0007349      10.7393274       0.0092457
      3.5478401       0.8512890       0.0007289      10.7153187       0.0091743
      3.5488200       0.8494190       0.0007327      10.6976881       0.0092276
      3.5497899       0.8562820       0.0007412      10.7900162       0.0093393
      3.5507700       0.8492640       0.0007341      10.7074938       0.0092558
      3.5517499       0.8552080       0.0007301      10.7883863       0.0092098
      3.5527301       0.8561440       0.0007379      10.8061562       0.0093134
      3.5537100       0.8547510       0.0007344      10.7945261       0.0092742
      3.5546899       0.8448570       0.0007225      10.6754608       0.0091288
      3.5556700       0.8501390       0.0007153      10.7481279       0.0090439
      3.5566499       0.8523660       0.0007338      10.7822237       0.0092820
      3.5576301       0.8412010       0.0007102      10.6468554       0.0089891
      3.5585999       0.8469870       0.0007195      10.7259331       0.0091120
      3.5595801       0.8532900       0.0007294      10.8117056       0.0092415
      3.5605600       0.8519220       0.0007297      10.8003159       0.0092512
      3.5615399       0.8504900       0.0007301      10.7880964       0.0092604
      3.5625200       0.8508750       0.0007415      10.7989225       0.0094114
      3.5634999       0.8474630       0.0007400      10.7615366       0.0093967
      3.5644801       0.8494470       0.0007263      10.7926645       0.0092278
      3.5654600       0.8562940       0.0007355      10.8856411       0.0093505
      3.5664401       0.8520740       0.0007447      10.8379507       0.0094720
      3.5674200       0.8496280       0.0007330      10.8127775       0.0093286
      3.5683899       0.8498840       0.0007289      10.8219175       0.0092811
      3.5693700       0.8466710       0.0007309      10.7869291       0.0093122
      3.5703499       0.8445480       0.0007139      10.7657900       0.0090999
      3.5713301       0.8430870       0.0007213      10.7530680       0.0091992
      3.5723100       0.8446710       0.0007280      10.7791834       0.0092903
      3.5732901       0.8426420       0.0007309      10.7591925       0.0093323
      3.5742700       0.8464820       0.0007232      10.8141508       0.0092392
      3.5752499       0.8357140       0.0007068      10.6824398       0.0090349
      3.5762300       0.8406340       0.0007102      10.7512217       0.0090831
      3.5772099       0.8456390       0.0007136      10.8211603       0.0091321
      3.5781901       0.8420520       0.0007263      10.7811651       0.0092996
      3.5791600       0.8435820       0.0007313      10.8066101       0.0093683
      3.5801401       0.8440090       0.0007203      10.8180027       0.0092323
      3.5811200       0.8476950       0.0007363      10.8711977       0.0094425
      3.5820999       0.8394290       0.0007351      10.7710829       0.0094325
      3.5830801       0.8459900       0.0007337      10.8612108       0.0094192
      3.5840600       0.8422410       0.0007122      10.8189945       0.0091484
      3.5850401       0.8425900       0.0007341      10.8293982       0.0094353
      3.5860200       0.8388480       0.0007312      10.7871981       0.0094027
      3.5869999       0.8430280       0.0007258      10.8468781       0.0093390
      3.5879800       0.8451530       0.0007229      10.8801622       0.0093060
      3.5889599       0.8378280       0.0007296      10.7917547       0.0093980
      3.5899401       0.8351410       0.0007242      10.7630215       0.0093335
      3.5909200       0.8616430       0.0007519      11.1106329       0.0096950
      3.5918901       0.8403050       0.0007189      10.8413410       0.0092754
      3.5928700       0.8341730       0.0007239      10.7681017       0.0093440
      3.5938499       0.8638460       0.0007565      11.1572256       0.0097708
      3.5948300       0.8359110       0.0007143      10.8023129       0.0092313
      3.5958099       0.8344400       0.0007262      10.7891827       0.0093895
      3.5967901       0.8360280       0.0007277      10.8156099       0.0094144
      3.5977700       0.8265540       0.0007130      10.6988726       0.0092287
      3.5987501       0.8318780       0.0007193      10.7736540       0.0093157
      3.5997300       0.8327430       0.0007210      10.7907305       0.0093433
      3.6007099       0.8312360       0.0007165      10.7770681       0.0092893
      3.6016901       0.8345610       0.0007232      10.8260679       0.0093818
      3.6026700       0.8332290       0.0007277      10.8146715       0.0094450
      3.6036501       0.8373960       0.0007196      10.8746710       0.0093443
      3.6046300       0.8338590       0.0007186      10.8346281       0.0093366
      3.6056099       0.8304740       0.0007177      10.7965136       0.0093305
      3.6065900       0.8323420       0.0007169      10.8266821       0.0093247
      3.6075599       0.8306740       0.0007273      10.8107967       0.0094650
      3.6085401       0.8301370       0.0007069      10.8096800       0.0092053
      3.6095200       0.8305500       0.0007103      10.8209324       0.0092540
      3.6105001       0.8327230       0.0007230      10.8551369       0.0094247
      3.6114800       0.8360450       0.0007223      10.9043579       0.0094203
      3.6124599       0.8299500       0.0007204      10.8307362       0.0094007
      3.6134400       0.8298200       0.0007155      10.8349171       0.0093427
      3.6144199       0.8291640       0.0007099      10.8322248       0.0092737
      3.6154001       0.8284080       0.0007268      10.8282185       0.0094998
      3.6163800       0.8337390       0.0007146      10.9038086       0.0093462
      3.6173601       0.8318860       0.0007250      10.8854723       0.0094868
      3.6183400       0.8287010       0.0007104      10.8496723       0.0093011
      3.6193199       0.8251820       0.0007127      10.8094530       0.0093360
      3.6203001       0.8266160       0.0007069      10.8341017       0.0092657
      3.6212800       0.8286900       0.0007234      10.8671656       0.0094870
      3.6252000       0.8186230       0.0007232      10.7584057       0.0095044
      3.6261799       0.8240630       0.0007057      10.8357534       0.0092796
      3.6271601       0.8198680       0.0007225      10.7864218       0.0095056
      3.6281300       0.8260470       0.0007191      10.8735266       0.0094663
      3.6291101       0.8242050       0.0006984      10.8551416       0.0091979
      3.6300900       0.8203740       0.0007131      10.8105221       0.0093974
      3.6310699       0.8219340       0.0007272      10.8369274       0.0095880
      3.6320500       0.8226440       0.0006981      10.8521452       0.0092091
      3.6330299       0.8222740       0.0006970      10.8531179       0.0092000
      3.6340101       0.8213720       0.0006815      10.8470621       0.0090001
      3.6349900       0.8242830       0.0007025      10.8913765       0.0092826
      3.6359701       0.8202210       0.0006954      10.8435507       0.0091928
      3.6369500       0.8107610       0.0006640      10.7242641       0.0087835
      3.6379299       0.8183690       0.0006835      10.8307323       0.0090454
      3.6389101       0.8240280       0.0007003      10.9115047       0.0092732
      3.6398900       0.8256540       0.0006991      10.9389238       0.0092625
      3.6408701       0.8208230       0.0007010      10.8807764       0.0092925
      3.6418500       0.8154390       0.0006931      10.8152256       0.0091928
      3.6428299       0.8188500       0.0006967      10.8663111       0.0092455
      3.6438100       0.8150000       0.0006833      10.8210411       0.0090723
      3.6447899       0.8161080       0.0006868      10.8415813       0.0091238
      3.6457701       0.8183870       0.0006877      10.8777046       0.0091408
      3.6467500       0.8105040       0.0006735      10.7787189       0.0089565
      3.6477301       0.8120100       0.0006897      10.8045521       0.0091776
      3.6487100       0.8131150       0.0006824      10.8250685       0.0090845
      3.6496899       0.8097460       0.0006930      10.7860079       0.0092310
      3.6506701       0.8112530       0.0006958      10.8118868       0.0092732
      3.6516500       0.8149560       0.0007097      10.8670692       0.0094637
      3.6526301       0.8173850       0.0006970      10.9053106       0.0092992
      3.6536100       0.8071020       0.0006793      10.7738962       0.0090684
      3.6545899       0.8080960       0.0006849      10.7929525       0.0091480
      3.6555700       0.8117180       0.0006608      10.8471441       0.0088299
      3.6565499       0.8122420       0.0006896      10.8599653       0.0092198
      3.6575301       0.8099200       0.0006864      10.8347263       0.0091821
      3.6585100       0.8060830       0.0006855      10.7891750       0.0091758
      3.6594901       0.8110460       0.0006836      10.8614206       0.0091543
      3.6604700       0.8097860       0.0006663      10.8503551       0.0089279
      3.6614499       0.8145530       0.0006899      10.9200735       0.0092494
      3.6624300       0.8126290       0.0006934      10.9001131       0.0093011
      3.6634099       0.8116680       0.0006563      10.8930492       0.0088076
      3.6643901       0.8005420       0.0006732      10.7494812       0.0090394
      3.6653700       0.8038230       0.0006886      10.7993116       0.0092508
      3.6663499       0.8070200       0.0006961      10.8480606       0.0093567
      3.6673300       0.8031820       0.0007007      10.8022432       0.0094238
      3.6683099       0.8074850       0.0006879      10.8659201       0.0092568
      3.6692901       0.8077990       0.0007059      10.8759546       0.0095038
      3.6702700       0.8042100       0.0006991      10.8334179       0.0094177
      3.6712501       0.8063000       0.0006854      10.8673735       0.0092376
      3.6722300       0.7987210       0.0006829      10.7709713       0.0092084
      3.6732099       0.8044930       0.0006650      10.8545980       0.0089721
      3.6741900       0.8014650       0.0006825      10.8195152       0.0092129
      3.6751699       0.8089410       0.0006936      10.9262648       0.0093688
      3.6761501       0.8123590       0.0007042      10.9782839       0.0095171
      3.6771300       0.8174430       0.0007012      11.0528803       0.0094805
      3.6781099       0.8086120       0.0007033      10.9393005       0.0095149
      3.6790900       0.8034400       0.0007002      10.8751249       0.0094773
      3.6800699       0.8101860       0.0007030      10.9722795       0.0095211
      3.6810501       0.8130940       0.0006981      11.0175295       0.0094599
      3.6820300       0.8130080       0.0007085      11.0222292       0.0096048
      3.6830101       0.8047070       0.0007019      10.9154997       0.0095216
      3.6839900       0.8028800       0.0006997      10.8965120       0.0094957
      3.6849699       0.7985340       0.0006853      10.8432951       0.0093053
      3.6859500       0.7937970       0.0006707      10.7847071       0.0091118
      3.6869299       0.7987640       0.0006985      10.8579607       0.0094944
      3.6879101       0.7918380       0.0006980      10.7695351       0.0094931
      3.6888900       0.7943430       0.0006985      10.8093472       0.0095055
      3.6898701       0.7969090       0.0006991      10.8500290       0.0095185
      3.6908500       0.7958540       0.0007013      10.8414202       0.0095535
      3.6918299       0.7911080       0.0006799      10.7824926       0.0092671
      3.6928101       0.7977010       0.0006958      10.8781261       0.0094889
      3.6937900       0.7925060       0.0007005      10.8130178       0.0095582
      3.6947701       0.7930700       0.0007028      10.8264580       0.0095939
      3.6957500       0.7903010       0.0006877      10.7943802       0.0093925
      3.6967299       0.7969280       0.0007042      10.8906679       0.0096230
      3.6977100       0.7876560       0.0007068      10.7696676       0.0096646
      3.6986899       0.7924930       0.0007075      10.8415480       0.0096792
      3.6996701       0.7971530       0.0007081      10.9110785       0.0096915
      3.7006500       0.7898040       0.0006808      10.8162155       0.0093240
      3.7016301       0.7920570       0.0006920      10.8528166       0.0094815
      3.7026100       0.7787990       0.0006730      10.6768055       0.0092263
      3.7035899       0.7740940       0.0006839      10.6179209       0.0093814
      3.7045701       0.7822310       0.0006963      10.7352123       0.0095557
      3.7055500       0.7804530       0.0006760      10.7164783       0.0092828
      3.7065301       0.7819820       0.0006840      10.7431545       0.0093972
      3.7075100       0.7835310       0.0006925      10.7701273       0.0095185
      3.7084899       0.7888390       0.0006932      10.8488216       0.0095334
      3.7094700       0.7886560       0.0006813      10.8520393       0.0093741
      3.7104499       0.7838590       0.0006607      10.7917309       0.0090958
      3.7114301       0.7859440       0.0006942      10.8261528       0.0095622
      3.7124100       0.7908180       0.0006953      10.8990440       0.0095828
      3.7133901       0.7943060       0.0006985      10.9528971       0.0096317
      3.7143700       0.7867420       0.0006900      10.8543215       0.0095195
      3.7153499       0.7875700       0.0006697      10.8714790       0.0092442
      3.7163301       0.7881230       0.0006889      10.8848524       0.0095139
      3.7173100       0.7848980       0.0006909      10.8460293       0.0095469
      3.7182901       0.7864100       0.0006965      10.8726530       0.0096294
      3.7192700       0.7835560       0.0006908      10.8389063       0.0095560
      3.7202499       0.7836800       0.0006805      10.8463345       0.0094180
      3.7212300       0.7829590       0.0006835      10.8420658       0.0094650
      3.7222099       0.7823710       0.0006867      10.8396301       0.0095137
      3.7231901       0.7818960       0.0006899      10.8387556       0.0095637
      3.7241800       0.7831660       0.0006884      10.8621340       0.0095477
      3.7251599       0.7848190       0.0006877      10.8907890       0.0095437
      3.7261400       0.7814690       0.0006857      10.8500080       0.0095204
      3.7271199       0.7778710       0.0006889      10.8057356       0.0095700
      3.7281001       0.7773060       0.0006950      10.8035669       0.0096600
      3.7290800       0.7837240       0.0006964      10.8984957       0.0096847
      3.7300601       0.7819760       0.0006967      10.8799038       0.0096936
      3.7310400       0.7758900       0.0006858      10.8009005       0.0095462
      3.7320199       0.7760190       0.0006805      10.8083715       0.0094781
      3.7330000       0.7763230       0.0006815      10.8182859       0.0094974
      3.7339799       0.7790360       0.0006917      10.8617916       0.0096438
      3.7349601       0.7700020       0.0006941      10.7414713       0.0096830
      3.7359400       0.7657510       0.0006903      10.6877766       0.0096350
      3.7369201       0.7651080       0.0006837      10.6844053       0.0095474
      3.7379000       0.7656180       0.0006862      10.6971359       0.0095877
      3.7388799       0.7677470       0.0006992      10.7325068       0.0097739
      3.7398601       0.7595420       0.0006908      10.6233740       0.0096621
      3.7408400       0.7577630       0.0006889      10.6040468       0.0096408
      3.7418201       0.7559910       0.0006852      10.5847940       0.0095937
      3.7428000       0.7558560       0.0006818      10.5884476       0.0095510
      3.7437799       0.7604790       0.0006822      10.6587887       0.0095621
      3.7447600       0.7654160       0.0006829      10.7336035       0.0095765
      3.7457399       0.7625080       0.0006787      10.6984205       0.0095225
      3.7467301       0.7627830       0.0006961      10.7079372       0.0097718
      3.7477100       0.7676310       0.0006925      10.7816305       0.0097259
      3.7486899       0.7647630       0.0006929      10.7469664       0.0097366
      3.7496700       0.7657670       0.0006928      10.7667027       0.0097408
      3.7506499       0.7709460       0.0006987      10.8451872       0.0098286
      3.7516301       0.7605080       0.0006774      10.7039433       0.0095343
      3.7526100       0.7643050       0.0006911      10.7630053       0.0097315
      3.7535901       0.7735380       0.0006655      10.8987160       0.0093770
      3.7545700       0.7692020       0.0006620      10.8432837       0.0093322
      3.7555499       0.7620280       0.0006815      10.7477608       0.0096125
      3.7565300       0.7661570       0.0006923      10.8116379       0.0097699
      3.7575099       0.7904270       0.0006967      11.1599455       0.0098361
      3.7584901       0.7616030       0.0006788      10.7585926       0.0095882
      3.7594700       0.7694490       0.0006895      10.8750954       0.0097458
      3.7604499       0.7621630       0.0006535      10.7777338       0.0092413
      3.7614300       0.7589820       0.0006878      10.7383471       0.0097317
      3.7624099       0.7401450       0.0006762      10.4772921       0.0095724
      3.7633901       0.7577710       0.0006878      10.7323904       0.0097418
      3.7643800       0.7611010       0.0006877      10.7852249       0.0097455
      3.7653601       0.7457390       0.0006359      10.5730400       0.0090157
      3.7663400       0.7632120       0.0006980      10.8264046       0.0099008
      3.7673199       0.7571780       0.0006741      10.7463999       0.0095675
      3.7683001       0.7576610       0.0006786      10.7588511       0.0096357
      3.7692800       0.7629380       0.0006869      10.8394203       0.0097584
      3.7702601       0.7615620       0.0006684      10.8254976       0.0095019
      3.7712400       0.7595580       0.0006848      10.8026247       0.0097400
      3.7722199       0.7611860       0.0006933      10.8314047       0.0098651
      3.7732000       0.7566010       0.0006710      10.7717571       0.0095530
      3.7741799       0.7592250       0.0006706      10.8147306       0.0095524
      3.7751601       0.7611560       0.0006688      10.8478689       0.0095315
      3.7761400       0.7513910       0.0006909      10.7142591       0.0098518
      3.7771201       0.7559620       0.0006865      10.7850351       0.0097945
      3.7781000       0.7632560       0.0006833      10.8947468       0.0097540
      3.7790899       0.7595970       0.0006807      10.8482008       0.0097211
      3.7800701       0.7572130       0.0006866      10.8197632       0.0098115
      3.7810500       0.7510400       0.0006868      10.7371225       0.0098192
      3.7820301       0.7482050       0.0006726      10.7021389       0.0096212
      3.7830100       0.7571970       0.0006704      10.8363714       0.0095949
      3.7839899       0.7536680       0.0006846      10.7914553       0.0098023
      3.7849700       0.7520120       0.0006893      10.7733231       0.0098749
      3.7859499       0.7546950       0.0006892      10.8173580       0.0098780
      3.7869301       0.7451860       0.0006586      10.6865921       0.0094446
      3.7879100       0.7489300       0.0006693      10.7458439       0.0096026
      3.7888899       0.7555520       0.0006814      10.8464670       0.0097820
      3.7898700       0.7499900       0.0006783      10.7721920       0.0097428
      3.7908499       0.7519470       0.0006884      10.8058872       0.0098933
      3.7918301       0.7537910       0.0006962      10.8379879       0.0100094
      3.7928200       0.7521190       0.0006869      10.8195953       0.0098817
      3.7938001       0.7474950       0.0006855      10.7586355       0.0098669
      3.7947800       0.7466460       0.0006871      10.7519674       0.0098951
      3.7957599       0.7457200       0.0007029      10.7441797       0.0101275
      3.7967401       0.7475730       0.0007023      10.7764416       0.0101234
      3.7977200       0.7562470       0.0006955      10.9071064       0.0100308
      3.7987001       0.7483250       0.0006963      10.7984209       0.0100477
      3.7996800       0.7430350       0.0007003      10.7276182       0.0101108
      3.8006599       0.7431620       0.0006927      10.7349863       0.0100067
      3.8016400       0.7452350       0.0007068      10.7704849       0.0102149
      3.8026199       0.7475040       0.0007027      10.8088465       0.0101616
      3.8036001       0.7462320       0.0006963      10.7960167       0.0100732
      3.8045900       0.7450570       0.0006615      10.7846289       0.0095755
      3.8055699       0.7422210       0.0006835      10.7491131       0.0098982
      3.8065500       0.7446420       0.0007041      10.7897310       0.0102017
      3.8075299       0.7442030       0.0006926      10.7889214       0.0100413
      3.8085101       0.7438300       0.0006990      10.7890682       0.0101390
      3.8094900       0.7464270       0.0006946      10.8323078       0.0100802
      3.8104701       0.7402730       0.0007016      10.7485294       0.0101873
      3.8114500       0.7398620       0.0007071      10.7480879       0.0102722
      3.8124299       0.7432120       0.0006988      10.8023052       0.0101562
      3.8134100       0.7389050       0.0006987      10.7452278       0.0101605
      3.8143899       0.7434130       0.0007111      10.8163395       0.0103461
      3.8153701       0.7340250       0.0006937      10.6852379       0.0100977
      3.8163600       0.7338670       0.0006773      10.6884823       0.0098645
      3.8173399       0.7430510       0.0007113      10.8278008       0.0103657
      3.8183200       0.7423010       0.0007041      10.8224277       0.0102659
      3.8192999       0.7352540       0.0006882      10.7251883       0.0100383
      3.8202801       0.7339210       0.0006745      10.7112389       0.0098447
      3.8212600       0.7331980       0.0007013      10.7061777       0.0102409
      3.8222401       0.7346920       0.0006866      10.7334967       0.0100302
      3.8232200       0.7349830       0.0007005      10.7432547       0.0102387
      3.8241999       0.7309340       0.0006899      10.6895485       0.0100895
      3.8251801       0.7333840       0.0006887      10.7308769       0.0100776
      3.8261700       0.7344850       0.0006878      10.7525492       0.0100692
      3.8271501       0.7405380       0.0007008      10.8467178       0.0102649
      3.8281300       0.7355900       0.0006973      10.7797613       0.0102189
      3.8291099       0.7317960       0.0006807      10.7296543       0.0099810
      3.8300900       0.7352650       0.0006942      10.7860365       0.0101831
      3.8310699       0.7311310       0.0006841      10.7308807       0.0100407
      3.8320501       0.7273120       0.0006867      10.6802921       0.0100840
      3.8330300       0.7323070       0.0007049      10.7591419       0.0103571
      3.8340099       0.7390240       0.0006936      10.8633804       0.0101952
      3.8349900       0.7283940       0.0006820      10.7125988       0.0100302
      3.8359699       0.7317710       0.0006931      10.7677650       0.0101981
      3.8369601       0.7303700       0.0006461      10.7526989       0.0095118
      3.8379400       0.7275180       0.0006884      10.7161827       0.0101398
      3.8389201       0.7314560       0.0006937      10.7796917       0.0102228
      3.8399000       0.7336100       0.0006881      10.8169556       0.0101462
      3.8408799       0.7305370       0.0006905      10.7771435       0.0101864
      3.8418601       0.7296940       0.0007063      10.7702026       0.0104246
      3.8428400       0.7354770       0.0007082      10.8610964       0.0104586
      3.8438201       0.7302810       0.0006888      10.7898674       0.0101762
      3.8448000       0.7250110       0.0006950      10.7174654       0.0102737
      3.8457799       0.7331960       0.0006895      10.8439856       0.0101976
      3.8467700       0.7309360       0.0006716      10.8161278       0.0099378
      3.8477499       0.7296370       0.0006947      10.8024073       0.0102852
      3.8487301       0.7327230       0.0006986      10.8536234       0.0103488
      3.8497100       0.7297520       0.0006664      10.8151197       0.0098760
      3.8506899       0.7305160       0.0006776      10.8319540       0.0100479
      3.8516700       0.7298060       0.0006951      10.8269367       0.0103117
      3.8526499       0.7279960       0.0007007      10.8055801       0.0104008
      3.8536301       0.7313400       0.0007001      10.8607388       0.0103975
      3.8546100       0.7292500       0.0006913      10.8352098       0.0102720
      3.8556001       0.7225770       0.0006960      10.7415781       0.0103463
      3.8565800       0.7214680       0.0007017      10.7305441       0.0104365
      3.8575599       0.7259960       0.0006950      10.8033791       0.0103427
      3.8585401       0.7240930       0.0007022      10.7805367       0.0104552
      3.8595200       0.7216990       0.0006787      10.7503519       0.0101105
      3.8605001       0.7158210       0.0006884      10.6682110       0.0102590
      3.8614800       0.7306650       0.0007081      10.8949671       0.0105590
      3.8624599       0.7171250       0.0006855      10.6984987       0.0102272
      3.8634400       0.7222400       0.0006950      10.7802753       0.0103732
      3.8644300       0.7312820       0.0007058      10.9208326       0.0105398
      3.8654101       0.7466950       0.0007297      11.1566648       0.0109028
      3.8663900       0.7268110       0.0006955      10.8650770       0.0103967
      3.8673699       0.7208670       0.0007049      10.7816830       0.0105436
      3.8683500       0.7189150       0.0006946      10.7579393       0.0103943
      3.8693299       0.7170930       0.0006740      10.7361116       0.0100903
      3.8703101       0.7229010       0.0007008      10.8285513       0.0104977
      3.8712900       0.7254120       0.0006868      10.8716669       0.0102933
      3.8722701       0.7188210       0.0006954      10.7783432       0.0104278
      3.8732600       0.7160600       0.0006787      10.7424345       0.0101821
      3.8742399       0.7262660       0.0006925      10.9010611       0.0103941
      3.8752201       0.7185320       0.0006805      10.7904329       0.0102196
      3.8762000       0.7151530       0.0006854      10.7451210       0.0102973
      3.8771801       0.7227920       0.0006834      10.8653889       0.0102737
      3.8781600       0.7233540       0.0006877      10.8793344       0.0103433
      3.8791399       0.7184530       0.0006732      10.8110838       0.0101298
      3.8801200       0.7175330       0.0006808      10.8026972       0.0102494
      3.8810999       0.7167090       0.0006884      10.7957430       0.0103696
      3.8820901       0.7145070       0.0007045      10.7680655       0.0106169
      3.8830700       0.7102660       0.0006929      10.7095556       0.0104472
      3.8840499       0.7086910       0.0006869      10.6912022       0.0103621
      3.8850300       0.7069910       0.0006955      10.6709394       0.0104972
      3.8860099       0.7130440       0.0006948      10.7677298       0.0104929
      3.8869901       0.7073990       0.0007055      10.6878738       0.0106595
      3.8879700       0.7046070       0.0006904      10.6510582       0.0104356
      3.8889501       0.7016630       0.0006647      10.6119041       0.0100528
      3.8899400       0.7028260       0.0006707      10.6349058       0.0101485
      3.8909199       0.7040280       0.0006767      10.6584616       0.0102446
      3.8919001       0.7052710       0.0006904      10.6826591       0.0104579
      3.8928800       0.7058510       0.0006974      10.6968298       0.0105682
      3.8938601       0.7080860       0.0006960      10.7361040       0.0105528
      3.8948400       0.7095560       0.0006909      10.7638073       0.0104804
      3.8958199       0.7042310       0.0006952      10.6884050       0.0105515
      3.8968000       0.7120380       0.0007038      10.8123331       0.0106867
      3.8977900       0.7053160       0.0006955      10.7157011       0.0105670
      3.8987701       0.7050850       0.0006932      10.7175789       0.0105375
      3.8997500       0.7060140       0.0006956      10.7370958       0.0105781
      3.9007299       0.7023160       0.0006882      10.6862249       0.0104708
      3.9017100       0.7084340       0.0007025      10.7847319       0.0106944
      3.9026899       0.7055670       0.0006799      10.7464828       0.0103553
      3.9036701       0.7029520       0.0006812      10.7120323       0.0103802
      3.9046500       0.7118040       0.0007108      10.8523703       0.0108370
      3.9056399       0.7053320       0.0006952      10.7591496       0.0106052
      3.9066200       0.7051530       0.0006792      10.7618189       0.0103665
      3.9075999       0.7028620       0.0006840      10.7322378       0.0104439
      3.9085801       0.7064440       0.0007112      10.7923441       0.0108646
      3.9095600       0.7050620       0.0006992      10.7766323       0.0106863
      3.9105401       0.7068350       0.0006954      10.8091497       0.0106337
      3.9115200       0.7004840       0.0006953      10.7173967       0.0106380
      3.9124999       0.7029130       0.0007064      10.7599497       0.0108135
      3.9134901       0.6993960       0.0006939      10.7115335       0.0106267
      3.9144700       0.7039140       0.0006950      10.7861271       0.0106498
      3.9154501       0.6987680       0.0006854      10.7126379       0.0105070
      3.9164300       0.7054550       0.0006900      10.8205681       0.0105828
      3.9174099       0.7017640       0.0006699      10.7693405       0.0102803
      3.9183900       0.6994610       0.0006934      10.7393703       0.0106461
      3.9193699       0.7017730       0.0006968      10.7802582       0.0107031
      3.9203501       0.7095250       0.0006968      10.9047918       0.0107089
      3.9213400       0.7091170       0.0007021      10.9040260       0.0107957
      3.9223199       0.7037570       0.0006914      10.8270149       0.0106369
      3.9233000       0.7028800       0.0006951      10.8189287       0.0106986
      3.9242799       0.7015010       0.0007016      10.8030968       0.0108046
      3.9252601       0.7031070       0.0006967      10.8332376       0.0107347
      3.9262400       0.7022450       0.0007032      10.8253593       0.0108408
      3.9272201       0.7029560       0.0007032      10.8417311       0.0108458
      3.9282000       0.7058150       0.0007025      10.8912592       0.0108400
      3.9291899       0.7023710       0.0006955      10.8435783       0.0107382
      3.9301701       0.6996870       0.0007020      10.8075314       0.0108428
      3.9311500       0.6991290       0.0006970      10.8042974       0.0107713
      3.9321301       0.7035320       0.0006988      10.8777628       0.0108039
      3.9331100       0.7025150       0.0007046      10.8674536       0.0108994
      3.9340899       0.7052900       0.0007035      10.9158182       0.0108881
      3.9350700       0.6979980       0.0007010      10.8083429       0.0108553
      3.9360600       0.7013080       0.0007001      10.8650618       0.0108467
      3.9370401       0.7017570       0.0007047      10.8774338       0.0109229
      3.9380200       0.7013490       0.0006973      10.8765211       0.0108144
      3.9389999       0.6996870       0.0007011      10.8561478       0.0108777
      3.9399800       0.6966100       0.0006857      10.8137846       0.0106449
      3.9409599       0.7015430       0.0006901      10.8957796       0.0107182
      3.9419401       0.6995210       0.0007021      10.8697815       0.0109096
      3.9429200       0.7167680       0.0006745      11.1433182       0.0104859
      3.9439099       0.7089960       0.0006752      11.0280256       0.0105031
      3.9448900       0.7068960       0.0006768      11.0008268       0.0105318
      3.9458699       0.7062660       0.0006792      10.9964828       0.0105758
      3.9468501       0.7084270       0.0006803      11.0356102       0.0105975
      3.9478300       0.7042550       0.0006558      10.9760685       0.0102203
      3.9488101       0.7084980       0.0006579      11.0476809       0.0102581
      3.9497900       0.7087210       0.0006908      11.0566435       0.0107766
      3.9507799       0.7037760       0.0006871      10.9850016       0.0107250
      3.9517601       0.7057500       0.0006727      11.0212793       0.0105053
      3.9527400       0.7051720       0.0006688      11.0177155       0.0104495
      3.9537201       0.7048550       0.0006794      11.0182247       0.0106204
      3.9547000       0.7018790       0.0006854      10.9771442       0.0107194
      3.9556799       0.7040290       0.0006864      11.0162268       0.0107403
      3.9566600       0.7019950       0.0006856      10.9898434       0.0107325
      3.9576499       0.7033520       0.0006957      11.0165977       0.0108973
      3.9586301       0.7086020       0.0007024      11.1043272       0.0110073
      3.9596100       0.7043960       0.0007012      11.0438814       0.0109938
      3.9605899       0.7086990       0.0007191      11.1168451       0.0112805
      3.9615700       0.7042840       0.0007092      11.0530596       0.0111305
      3.9625499       0.7079940       0.0007136      11.1167812       0.0112045
      3.9635301       0.7075100       0.0007212      11.1146784       0.0113298
      3.9645200       0.7034990       0.0007234      11.0571890       0.0113703
      3.9655001       0.7030630       0.0007248      11.0558004       0.0113975
      3.9664800       0.7054290       0.0007291      11.0984888       0.0114702
      3.9674599       0.7002830       0.0007152      11.0229712       0.0112577
      3.9684401       0.7062730       0.0007490      11.1227522       0.0117949
      3.9694200       0.7085730       0.0007532      11.1644850       0.0118671
      3.9704001       0.7049010       0.0007518      11.1121130       0.0118518
      3.9713900       0.7033000       0.0007557      11.0924044       0.0119190
      3.9723699       0.7143060       0.0007622      11.2715511       0.0120269
      3.9733500       0.7117470       0.0007789      11.2367134       0.0122974
      3.9743299       0.7119890       0.0007777      11.2460785       0.0122836
      3.9753101       0.7091730       0.0007945      11.2071247       0.0125555
      3.9762900       0.7072640       0.0007964      11.1824675       0.0125923
      3.9772699       0.6986160       0.0007865      11.0511808       0.0124418
      3.9782600       0.7146670       0.0008082      11.3107157       0.0127911
      3.9792399       0.7179300       0.0008224      11.3679552       0.0130221
      3.9802201       0.7059380       0.0008065      11.1835766       0.0127769
      3.9812000       0.7136360       0.0008313      11.3110971       0.0131758
      3.9821801       0.7097370       0.0008403      11.2548380       0.0133252
      3.9831600       0.7117010       0.0008572      11.2915373       0.0136000
      3.9841399       0.7175710       0.0008702      11.3902712       0.0138127
      3.9851301       0.7201480       0.0008818      11.4368591       0.0140033
      3.9861100       0.7173970       0.0008553      11.3987722       0.0135898
      3.9870901       0.7231030       0.0008990      11.4950867       0.0142910
      3.9880700       0.7151830       0.0008996      11.3747730       0.0143081
      3.9890499       0.7141330       0.0009167      11.3636560       0.0145863
      3.9900301       0.7182780       0.0009318      11.4352293       0.0148340
      3.9910100       0.7129600       0.0009086      11.3561411       0.0144727
      3.9920001       0.7048810       0.0009350      11.2330294       0.0149005
      3.9929800       0.7016590       0.0009346      11.1871738       0.0149009
      3.9939599       0.7164940       0.0009648      11.4293089       0.0153906
      3.9949400       0.7125990       0.0009655      11.3727560       0.0154093
      3.9959199       0.7170390       0.0010114      11.4492311       0.0161496
      3.9969001       0.7180330       0.0010177      11.4707279       0.0162575
      3.9978800       0.7175250       0.0010342      11.4682341       0.0165295
      3.9988699       0.7191850       0.0010480      11.5004587       0.0167584
      3.9998500       0.7161130       0.0010676      11.4569483       0.0170797
      4.0008302       0.7148360       0.0010704      11.4421234       0.0171337
      4.0018101       0.7228310       0.0010681      11.5757656       0.0171049
      4.0027900       0.7140000       0.0011098      11.4399414       0.0177814
      4.0037699       0.7173400       0.0011430      11.4990835       0.0183217
      4.0047498       0.7103320       0.0010996      11.3923197       0.0176354
      4.0057402       0.7103660       0.0011378      11.3985004       0.0182566
      4.0067201       0.7181510       0.0011875      11.5290565       0.0190631
      4.0077000       0.7135390       0.0012038      11.4606199       0.0193350
      4.0086799       0.7103240       0.0011797      11.4145613       0.0189580
      4.0096598       0.7072200       0.0012135      11.3702393       0.0195107
      4.0106401       0.7083050       0.0012654      11.3932514       0.0203543
      4.0116200       0.6963520       0.0012654      11.2064590       0.0203644
      4.0126100       0.6989330       0.0012606      11.2535467       0.0202970
      4.0135899       0.7143990       0.0013235      11.5081844       0.0213198
      4.0145702       0.7166970       0.0013566      11.5508432       0.0218634
      4.0155501       0.7127470       0.0013786      11.4927912       0.0222302
      4.0165300       0.7116610       0.0014040      11.4808798       0.0226507
      4.0175099       0.7219250       0.0014082      11.6521492       0.0227297
      4.0184898       0.7201950       0.0014352      11.6298962       0.0231753
      4.0194802       0.7128330       0.0014839      11.5166874       0.0239737
      4.0204601       0.7206610       0.0015189      11.6488352       0.0245520
      4.0214400       0.7034260       0.0015154      11.3757915       0.0245072
      4.0224199       0.7114630       0.0015532      11.5113735       0.0251301
      4.0233998       0.7218030       0.0015917      11.6843634       0.0257660
      4.0243802       0.7220510       0.0016280      11.6940765       0.0263667
      4.0253701       0.7189450       0.0016157      11.6494999       0.0261805
      4.0263500       0.7042980       0.0016462      11.4177237       0.0266880
      4.0273299       0.7206540       0.0016971      11.6885662       0.0275254
      4.0283098       0.7116510       0.0016853      11.5481606       0.0273482
      4.0292902       0.7146670       0.0017715      11.6027479       0.0287598
      4.0302701       0.7120620       0.0017858      11.5660772       0.0290064
      4.0312500       0.7129850       0.0018551      11.5867023       0.0301467
      4.0322399       0.7237670       0.0019154      11.7676973       0.0311427
      4.0332198       0.7092920       0.0018802      11.5379553       0.0305851
      4.0342002       0.7086630       0.0019587      11.5333281       0.0318776
      4.0351801       0.7114980       0.0019704      11.5850935       0.0320826
      4.0361600       0.7080780       0.0019392      11.5350075       0.0315902
      4.0371399       0.7132530       0.0020793      11.6249533       0.0338891
      4.0381198       0.6960810       0.0020874      11.3505831       0.0340388
      4.0391102       0.7086670       0.0021919      11.5614843       0.0357591
      4.0400901       0.7083540       0.0022293      11.5619869       0.0363874
      4.0410700       0.6800930       0.0021733      11.1060858       0.0354912
      4.0420499       0.6965650       0.0022918      11.3805952       0.0374445
      4.0430298       0.7145890       0.0023931      11.6807365       0.0391178
      4.0440102       0.7180120       0.0023868      11.7423801       0.0390334
      4.0449901       0.7015810       0.0024630      11.4792290       0.0402988
      4.0459800       0.7094890       0.0025503      11.6143017       0.0417489
      4.0469599       0.7062580       0.0025721      11.5670118       0.0421256
      4.0479398       0.7041950       0.0026431      11.5388107       0.0433092
      4.0489202       0.7125670       0.0027520      11.6816483       0.0451154
      4.0499001       0.7185290       0.0028661      11.7850895       0.0470084
      4.0508800       0.7462890       0.0029674      12.2463255       0.0486934
      4.0518699       0.7890670       0.0031606      12.9546251       0.0518898
      4.0528498       0.7778930       0.0032457      12.7773523       0.0533119
      4.0538301       0.7386680       0.0031676      12.1389294       0.0520546
      4.0548100       0.7680000       0.0033515      12.6270599       0.0551036
      4.0557899       0.7159450       0.0032266      11.7768888       0.0530757
      4.0567698       0.7327760       0.0033486      12.0595741       0.0551092
      4.0577502       0.6987030       0.0033117      11.5043812       0.0545279
      4.0587401       0.7117700       0.0034395      11.7252512       0.0566597
      4.0597200       0.7422030       0.0037533      12.2324905       0.0618597
      4.0606999       0.7224190       0.0036677      11.9121733       0.0604779
      4.0616798       0.7450010       0.0039207      12.2904634       0.0646799
      4.0626602       0.7206410       0.0038653      11.8943310       0.0637982
      4.0636401       0.7347980       0.0040531      12.1338444       0.0669299
      4.0646200       0.7282730       0.0041341      12.0318966       0.0682992
      4.0656099       0.7746360       0.0045062      12.8041010       0.0744840
      4.0665898       0.7483950       0.0045702      12.3763237       0.0755788
      4.0675702       0.7432900       0.0045092      12.2978287       0.0746058
      4.0685501       0.7646580       0.0046426      12.6574602       0.0768494
      4.0695300       0.7760580       0.0050120      12.8523550       0.0830034
      4.0705099       0.7561200       0.0051212      12.5281916       0.0848541
      4.0714998       0.7362320       0.0049695      12.2045984       0.0823801
      4.0724802       0.7275550       0.0048174      12.0665684       0.0798972
      4.0734601       0.7191120       0.0050216      11.9322805       0.0833240
      4.0744400       0.7536280       0.0054036      12.5110245       0.0897052
      4.0754199       0.7115870       0.0053955      11.8187819       0.0896144
      4.0763998       0.7274960       0.0058814      12.0888271       0.0977318
      4.0773802       0.7138980       0.0056356      11.8685751       0.0936928
      4.0783701       0.7185630       0.0058854      11.9519320       0.0978918
      4.0793500       0.7909200       0.0067758      13.1617756       0.1127574
      4.0803299       0.7495400       0.0064522      12.4791594       0.1074226
      4.0813098       0.7509480       0.0067873      12.5086079       0.1130565
      4.0822902       0.8492430       0.0080622      14.1527128       0.1343566
      4.0832701       0.7916270       0.0075803      13.1988707       0.1263867
      4.0842500       0.7887910       0.0079905      13.1578989       0.1332901
      4.0852399       0.8388950       0.0089299      14.0004740       0.1490332
      4.0862198       0.7920270       0.0083559      13.2246265       0.1395197
      4.0872002       0.8076630       0.0087781      13.4921770       0.1466401
      4.0881801       0.8253230       0.0096505      13.7938023       0.1612907
      4.0891600       0.7825080       0.0094893      13.0844965       0.1586723
      4.0901399       0.8348890       0.0103765      13.9670620       0.1735910
      4.0911198       0.8157790       0.0098943      13.6539059       0.1656030
      4.0921102       0.8205210       0.0101820      13.7399235       0.1705013
      4.0930901       0.7677770       0.0101206      12.8628645       0.1695543
      4.0940700       0.7728150       0.0100615      12.9534683       0.1686449
      4.0950499       0.9126370       0.0127589      15.3044062       0.2139595
      4.0960302       0.8638930       0.0135118      14.4939327       0.2266937
      4.0970101       0.8477910       0.0130670      14.2305889       0.2193360
      4.0980000       0.8576980       0.0133626      14.4038410       0.2244062
      4.0989799       0.7670420       0.0120961      12.8875599       0.2032343
      4.0999599       0.8225410       0.0145537      13.8266439       0.2446429
